### electron energy loss spectra
   0.0000          0.0003          0.0003          0.0003
   0.0200          0.0005          0.0005          0.0005
   0.0400          0.0011          0.0011          0.0011
   0.0600          0.0015          0.0015          0.0015
   0.0800          0.0020          0.0020          0.0020
   0.1000          0.0024          0.0024          0.0024
   0.1200          0.0027          0.0027          0.0027
   0.1400          0.0031          0.0031          0.0031
   0.1600          0.0034          0.0034          0.0034
   0.1800          0.0037          0.0037          0.0037
   0.2000          0.0040          0.0040          0.0040
   0.2200          0.0043          0.0043          0.0043
   0.2400          0.0046          0.0046          0.0046
   0.2600          0.0049          0.0049          0.0049
   0.2800          0.0052          0.0052          0.0052
   0.3000          0.0055          0.0055          0.0055
   0.3200          0.0059          0.0059          0.0059
   0.3400          0.0062          0.0062          0.0062
   0.3600          0.0066          0.0066          0.0066
   0.3800          0.0070          0.0070          0.0070
   0.4000          0.0074          0.0074          0.0074
   0.4200          0.0078          0.0078          0.0078
   0.4400          0.0082          0.0082          0.0082
   0.4600          0.0087          0.0087          0.0087
   0.4800          0.0092          0.0092          0.0092
   0.5000          0.0097          0.0097          0.0097
   0.5200          0.0102          0.0102          0.0102
   0.5400          0.0107          0.0107          0.0107
   0.5600          0.0112          0.0112          0.0112
   0.5800          0.0117          0.0117          0.0117
   0.6000          0.0122          0.0122          0.0122
   0.6200          0.0127          0.0127          0.0127
   0.6400          0.0132          0.0132          0.0132
   0.6600          0.0137          0.0137          0.0137
   0.6800          0.0142          0.0142          0.0142
   0.7000          0.0147          0.0147          0.0147
   0.7200          0.0152          0.0152          0.0152
   0.7400          0.0157          0.0157          0.0157
   0.7600          0.0161          0.0161          0.0161
   0.7800          0.0166          0.0166          0.0166
   0.8000          0.0171          0.0171          0.0171
   0.8200          0.0175          0.0175          0.0175
   0.8400          0.0180          0.0180          0.0180
   0.8600          0.0185          0.0185          0.0185
   0.8800          0.0190          0.0190          0.0190
   0.9000          0.0196          0.0196          0.0196
   0.9200          0.0201          0.0201          0.0201
   0.9400          0.0208          0.0208          0.0208
   0.9600          0.0214          0.0214          0.0214
   0.9800          0.0221          0.0221          0.0221
   1.0000          0.0228          0.0228          0.0228
   1.0200          0.0236          0.0236          0.0236
   1.0400          0.0244          0.0244          0.0244
   1.0600          0.0252          0.0252          0.0252
   1.0800          0.0261          0.0261          0.0261
   1.1000          0.0271          0.0271          0.0271
   1.1200          0.0280          0.0280          0.0280
   1.1400          0.0291          0.0291          0.0291
   1.1600          0.0301          0.0301          0.0301
   1.1800          0.0312          0.0312          0.0312
   1.2000          0.0324          0.0324          0.0324
   1.2200          0.0335          0.0335          0.0335
   1.2400          0.0347          0.0347          0.0347
   1.2600          0.0359          0.0359          0.0359
   1.2800          0.0372          0.0372          0.0372
   1.3000          0.0385          0.0385          0.0385
   1.3200          0.0398          0.0398          0.0398
   1.3400          0.0411          0.0411          0.0411
   1.3600          0.0425          0.0425          0.0425
   1.3800          0.0438          0.0438          0.0438
   1.4000          0.0452          0.0452          0.0452
   1.4200          0.0467          0.0467          0.0467
   1.4400          0.0481          0.0481          0.0481
   1.4600          0.0495          0.0495          0.0495
   1.4800          0.0510          0.0510          0.0510
   1.5000          0.0524          0.0524          0.0524
   1.5200          0.0539          0.0539          0.0539
   1.5400          0.0553          0.0553          0.0553
   1.5600          0.0567          0.0567          0.0567
   1.5800          0.0580          0.0580          0.0580
   1.6000          0.0592          0.0592          0.0592
   1.6200          0.0604          0.0604          0.0604
   1.6400          0.0614          0.0614          0.0614
   1.6600          0.0624          0.0624          0.0624
   1.6800          0.0632          0.0632          0.0632
   1.7000          0.0640          0.0640          0.0640
   1.7200          0.0646          0.0646          0.0646
   1.7400          0.0652          0.0652          0.0652
   1.7600          0.0657          0.0657          0.0657
   1.7800          0.0661          0.0661          0.0661
   1.8000          0.0665          0.0665          0.0665
   1.8200          0.0668          0.0668          0.0668
   1.8400          0.0671          0.0671          0.0671
   1.8600          0.0674          0.0674          0.0674
   1.8800          0.0676          0.0676          0.0676
   1.9000          0.0678          0.0678          0.0678
   1.9200          0.0679          0.0679          0.0679
   1.9400          0.0680          0.0680          0.0680
   1.9600          0.0680          0.0680          0.0680
   1.9800          0.0678          0.0678          0.0678
   2.0000          0.0676          0.0676          0.0676
   2.0200          0.0672          0.0672          0.0672
   2.0400          0.0666          0.0666          0.0666
   2.0600          0.0658          0.0658          0.0658
   2.0800          0.0648          0.0648          0.0648
   2.1000          0.0636          0.0636          0.0636
   2.1200          0.0623          0.0623          0.0623
   2.1400          0.0609          0.0609          0.0609
   2.1600          0.0594          0.0594          0.0594
   2.1800          0.0579          0.0579          0.0579
   2.2000          0.0563          0.0563          0.0563
   2.2200          0.0548          0.0548          0.0548
   2.2400          0.0534          0.0534          0.0534
   2.2600          0.0520          0.0520          0.0520
   2.2800          0.0507          0.0507          0.0507
   2.3000          0.0495          0.0495          0.0495
   2.3200          0.0484          0.0484          0.0484
   2.3400          0.0474          0.0474          0.0474
   2.3600          0.0465          0.0465          0.0465
   2.3800          0.0456          0.0456          0.0456
   2.4000          0.0448          0.0448          0.0448
   2.4200          0.0441          0.0441          0.0441
   2.4400          0.0435          0.0435          0.0435
   2.4600          0.0429          0.0429          0.0429
   2.4800          0.0423          0.0423          0.0423
   2.5000          0.0418          0.0418          0.0418
   2.5200          0.0414          0.0414          0.0414
   2.5400          0.0409          0.0409          0.0409
   2.5600          0.0405          0.0405          0.0405
   2.5800          0.0402          0.0402          0.0402
   2.6000          0.0398          0.0398          0.0398
   2.6200          0.0395          0.0395          0.0395
   2.6400          0.0392          0.0392          0.0392
   2.6600          0.0390          0.0390          0.0390
   2.6800          0.0388          0.0388          0.0388
   2.7000          0.0386          0.0386          0.0386
   2.7200          0.0384          0.0384          0.0384
   2.7400          0.0383          0.0383          0.0383
   2.7600          0.0381          0.0381          0.0381
   2.7800          0.0380          0.0380          0.0380
   2.8000          0.0380          0.0380          0.0380
   2.8200          0.0379          0.0379          0.0379
   2.8400          0.0379          0.0379          0.0379
   2.8600          0.0379          0.0379          0.0379
   2.8800          0.0380          0.0380          0.0380
   2.9000          0.0381          0.0381          0.0381
   2.9200          0.0382          0.0382          0.0382
   2.9400          0.0383          0.0383          0.0383
   2.9600          0.0384          0.0384          0.0384
   2.9800          0.0386          0.0386          0.0386
   3.0000          0.0388          0.0388          0.0388
   3.0200          0.0390          0.0390          0.0390
   3.0400          0.0393          0.0393          0.0393
   3.0600          0.0395          0.0395          0.0395
   3.0800          0.0398          0.0398          0.0398
   3.1000          0.0401          0.0401          0.0401
   3.1200          0.0404          0.0404          0.0404
   3.1400          0.0406          0.0406          0.0406
   3.1600          0.0409          0.0409          0.0409
   3.1800          0.0411          0.0411          0.0411
   3.2000          0.0414          0.0414          0.0414
   3.2200          0.0416          0.0416          0.0416
   3.2400          0.0418          0.0418          0.0418
   3.2600          0.0420          0.0420          0.0420
   3.2800          0.0422          0.0422          0.0422
   3.3000          0.0423          0.0423          0.0423
   3.3200          0.0425          0.0425          0.0425
   3.3400          0.0427          0.0427          0.0427
   3.3600          0.0429          0.0429          0.0429
   3.3800          0.0431          0.0431          0.0431
   3.4000          0.0433          0.0433          0.0433
   3.4200          0.0436          0.0436          0.0436
   3.4400          0.0438          0.0438          0.0438
   3.4600          0.0441          0.0441          0.0441
   3.4800          0.0444          0.0444          0.0444
   3.5000          0.0448          0.0448          0.0448
   3.5200          0.0451          0.0451          0.0451
   3.5400          0.0455          0.0455          0.0455
   3.5600          0.0459          0.0459          0.0459
   3.5800          0.0463          0.0463          0.0463
   3.6000          0.0467          0.0467          0.0467
   3.6200          0.0471          0.0471          0.0471
   3.6400          0.0475          0.0475          0.0475
   3.6600          0.0479          0.0479          0.0479
   3.6800          0.0484          0.0484          0.0484
   3.7000          0.0488          0.0488          0.0488
   3.7200          0.0493          0.0493          0.0493
   3.7400          0.0498          0.0498          0.0498
   3.7600          0.0504          0.0504          0.0504
   3.7800          0.0509          0.0509          0.0509
   3.8000          0.0515          0.0515          0.0515
   3.8200          0.0522          0.0522          0.0522
   3.8400          0.0528          0.0528          0.0528
   3.8600          0.0536          0.0536          0.0536
   3.8800          0.0543          0.0543          0.0543
   3.9000          0.0551          0.0551          0.0551
   3.9200          0.0559          0.0559          0.0559
   3.9400          0.0567          0.0567          0.0567
   3.9600          0.0575          0.0575          0.0575
   3.9800          0.0583          0.0583          0.0583
   4.0000          0.0591          0.0591          0.0591
   4.0200          0.0598          0.0598          0.0598
   4.0400          0.0605          0.0605          0.0605
   4.0600          0.0611          0.0611          0.0611
   4.0800          0.0615          0.0615          0.0615
   4.1000          0.0619          0.0619          0.0619
   4.1200          0.0622          0.0622          0.0622
   4.1400          0.0625          0.0625          0.0625
   4.1600          0.0626          0.0626          0.0626
   4.1800          0.0627          0.0627          0.0627
   4.2000          0.0627          0.0627          0.0627
   4.2200          0.0627          0.0627          0.0627
   4.2400          0.0627          0.0627          0.0627
   4.2600          0.0627          0.0627          0.0627
   4.2800          0.0627          0.0627          0.0627
   4.3000          0.0627          0.0627          0.0627
   4.3200          0.0628          0.0628          0.0628
   4.3400          0.0629          0.0629          0.0629
   4.3600          0.0630          0.0630          0.0630
   4.3800          0.0632          0.0632          0.0632
   4.4000          0.0635          0.0635          0.0635
   4.4200          0.0639          0.0639          0.0639
   4.4400          0.0643          0.0643          0.0643
   4.4600          0.0647          0.0647          0.0647
   4.4800          0.0653          0.0653          0.0653
   4.5000          0.0659          0.0659          0.0659
   4.5200          0.0666          0.0666          0.0666
   4.5400          0.0673          0.0673          0.0673
   4.5600          0.0681          0.0681          0.0681
   4.5800          0.0689          0.0689          0.0689
   4.6000          0.0698          0.0698          0.0698
   4.6200          0.0706          0.0706          0.0706
   4.6400          0.0715          0.0715          0.0715
   4.6600          0.0724          0.0724          0.0724
   4.6800          0.0734          0.0734          0.0734
   4.7000          0.0743          0.0743          0.0743
   4.7200          0.0752          0.0752          0.0752
   4.7400          0.0761          0.0761          0.0761
   4.7600          0.0770          0.0770          0.0770
   4.7800          0.0779          0.0779          0.0779
   4.8000          0.0787          0.0787          0.0787
   4.8200          0.0794          0.0794          0.0794
   4.8400          0.0801          0.0801          0.0801
   4.8600          0.0807          0.0807          0.0807
   4.8800          0.0813          0.0813          0.0813
   4.9000          0.0817          0.0817          0.0817
   4.9200          0.0820          0.0820          0.0820
   4.9400          0.0822          0.0822          0.0822
   4.9600          0.0824          0.0824          0.0824
   4.9800          0.0824          0.0824          0.0824
   5.0000          0.0824          0.0824          0.0824
   5.0200          0.0824          0.0824          0.0824
   5.0400          0.0823          0.0823          0.0823
   5.0600          0.0822          0.0822          0.0822
   5.0800          0.0821          0.0821          0.0821
   5.1000          0.0820          0.0820          0.0820
   5.1200          0.0819          0.0819          0.0819
   5.1400          0.0819          0.0819          0.0819
   5.1600          0.0820          0.0820          0.0820
   5.1800          0.0822          0.0822          0.0822
   5.2000          0.0824          0.0824          0.0824
   5.2200          0.0827          0.0827          0.0827
   5.2400          0.0832          0.0832          0.0832
   5.2600          0.0837          0.0837          0.0837
   5.2800          0.0844          0.0844          0.0844
   5.3000          0.0852          0.0852          0.0852
   5.3200          0.0861          0.0861          0.0861
   5.3400          0.0872          0.0872          0.0872
   5.3600          0.0884          0.0884          0.0884
   5.3800          0.0897          0.0897          0.0897
   5.4000          0.0912          0.0912          0.0912
   5.4200          0.0927          0.0927          0.0927
   5.4400          0.0944          0.0944          0.0944
   5.4600          0.0962          0.0962          0.0962
   5.4800          0.0981          0.0981          0.0981
   5.5000          0.1000          0.1000          0.1000
   5.5200          0.1020          0.1020          0.1020
   5.5400          0.1039          0.1039          0.1039
   5.5600          0.1059          0.1059          0.1059
   5.5800          0.1077          0.1077          0.1077
   5.6000          0.1095          0.1095          0.1095
   5.6200          0.1112          0.1112          0.1112
   5.6400          0.1127          0.1127          0.1127
   5.6600          0.1140          0.1140          0.1140
   5.6800          0.1151          0.1151          0.1151
   5.7000          0.1159          0.1159          0.1159
   5.7200          0.1166          0.1166          0.1166
   5.7400          0.1170          0.1170          0.1170
   5.7600          0.1173          0.1173          0.1173
   5.7800          0.1173          0.1173          0.1173
   5.8000          0.1172          0.1172          0.1172
   5.8200          0.1170          0.1170          0.1170
   5.8400          0.1166          0.1166          0.1166
   5.8600          0.1162          0.1162          0.1162
   5.8800          0.1158          0.1158          0.1158
   5.9000          0.1153          0.1153          0.1153
   5.9200          0.1149          0.1149          0.1149
   5.9400          0.1144          0.1144          0.1144
   5.9600          0.1141          0.1141          0.1141
   5.9800          0.1138          0.1138          0.1138
   6.0000          0.1136          0.1136          0.1136
   6.0200          0.1135          0.1135          0.1135
   6.0400          0.1134          0.1134          0.1134
   6.0600          0.1134          0.1134          0.1134
   6.0800          0.1135          0.1135          0.1135
   6.1000          0.1136          0.1136          0.1136
   6.1200          0.1138          0.1138          0.1138
   6.1400          0.1141          0.1141          0.1141
   6.1600          0.1143          0.1143          0.1143
   6.1800          0.1146          0.1146          0.1146
   6.2000          0.1149          0.1149          0.1149
   6.2200          0.1152          0.1152          0.1152
   6.2400          0.1155          0.1155          0.1155
   6.2600          0.1158          0.1158          0.1158
   6.2800          0.1162          0.1162          0.1162
   6.3000          0.1166          0.1166          0.1166
   6.3200          0.1170          0.1170          0.1170
   6.3400          0.1175          0.1175          0.1175
   6.3600          0.1181          0.1181          0.1181
   6.3800          0.1187          0.1187          0.1187
   6.4000          0.1195          0.1195          0.1195
   6.4200          0.1203          0.1203          0.1203
   6.4400          0.1212          0.1212          0.1212
   6.4600          0.1223          0.1223          0.1223
   6.4800          0.1234          0.1234          0.1234
   6.5000          0.1247          0.1247          0.1247
   6.5200          0.1261          0.1261          0.1261
   6.5400          0.1276          0.1276          0.1276
   6.5600          0.1292          0.1292          0.1292
   6.5800          0.1309          0.1309          0.1309
   6.6000          0.1326          0.1326          0.1326
   6.6200          0.1344          0.1344          0.1344
   6.6400          0.1363          0.1363          0.1363
   6.6600          0.1382          0.1382          0.1382
   6.6800          0.1401          0.1401          0.1401
   6.7000          0.1420          0.1420          0.1420
   6.7200          0.1439          0.1439          0.1439
   6.7400          0.1457          0.1457          0.1457
   6.7600          0.1474          0.1474          0.1474
   6.7800          0.1490          0.1490          0.1490
   6.8000          0.1505          0.1505          0.1505
   6.8200          0.1518          0.1518          0.1518
   6.8400          0.1530          0.1530          0.1530
   6.8600          0.1541          0.1541          0.1541
   6.8800          0.1551          0.1551          0.1551
   6.9000          0.1560          0.1560          0.1560
   6.9200          0.1567          0.1567          0.1567
   6.9400          0.1573          0.1573          0.1573
   6.9600          0.1578          0.1578          0.1578
   6.9800          0.1582          0.1582          0.1582
   7.0000          0.1585          0.1585          0.1585
   7.0200          0.1587          0.1587          0.1587
   7.0400          0.1588          0.1588          0.1588
   7.0600          0.1589          0.1589          0.1589
   7.0800          0.1589          0.1589          0.1589
   7.1000          0.1589          0.1589          0.1589
   7.1200          0.1588          0.1588          0.1588
   7.1400          0.1588          0.1588          0.1588
   7.1600          0.1588          0.1588          0.1588
   7.1800          0.1589          0.1589          0.1589
   7.2000          0.1591          0.1591          0.1591
   7.2200          0.1593          0.1593          0.1593
   7.2400          0.1597          0.1597          0.1597
   7.2600          0.1603          0.1603          0.1603
   7.2800          0.1611          0.1611          0.1611
   7.3000          0.1621          0.1621          0.1621
   7.3200          0.1634          0.1634          0.1634
   7.3400          0.1649          0.1649          0.1649
   7.3600          0.1667          0.1667          0.1667
   7.3800          0.1688          0.1688          0.1688
   7.4000          0.1712          0.1712          0.1712
   7.4200          0.1739          0.1739          0.1739
   7.4400          0.1770          0.1770          0.1770
   7.4600          0.1803          0.1803          0.1803
   7.4800          0.1839          0.1839          0.1839
   7.5000          0.1878          0.1878          0.1878
   7.5200          0.1920          0.1920          0.1920
   7.5400          0.1965          0.1965          0.1965
   7.5600          0.2012          0.2012          0.2012
   7.5800          0.2061          0.2061          0.2061
   7.6000          0.2112          0.2112          0.2112
   7.6200          0.2164          0.2164          0.2164
   7.6400          0.2218          0.2218          0.2218
   7.6600          0.2273          0.2273          0.2273
   7.6800          0.2327          0.2327          0.2327
   7.7000          0.2381          0.2381          0.2381
   7.7200          0.2433          0.2433          0.2433
   7.7400          0.2482          0.2482          0.2482
   7.7600          0.2529          0.2529          0.2529
   7.7800          0.2571          0.2571          0.2571
   7.8000          0.2609          0.2609          0.2609
   7.8200          0.2643          0.2643          0.2643
   7.8400          0.2672          0.2672          0.2672
   7.8600          0.2697          0.2697          0.2697
   7.8800          0.2719          0.2719          0.2719
   7.9000          0.2737          0.2737          0.2737
   7.9200          0.2753          0.2753          0.2753
   7.9400          0.2767          0.2767          0.2767
   7.9600          0.2781          0.2781          0.2781
   7.9800          0.2794          0.2794          0.2794
   8.0000          0.2808          0.2808          0.2808
   8.0200          0.2823          0.2823          0.2823
   8.0400          0.2839          0.2839          0.2839
   8.0600          0.2857          0.2857          0.2857
   8.0800          0.2877          0.2877          0.2877
   8.1000          0.2898          0.2898          0.2898
   8.1200          0.2921          0.2921          0.2921
   8.1400          0.2946          0.2946          0.2946
   8.1600          0.2972          0.2972          0.2972
   8.1800          0.2999          0.2999          0.2999
   8.2000          0.3027          0.3027          0.3027
   8.2200          0.3055          0.3055          0.3055
   8.2400          0.3084          0.3084          0.3084
   8.2600          0.3113          0.3113          0.3113
   8.2800          0.3141          0.3141          0.3141
   8.3000          0.3170          0.3170          0.3170
   8.3200          0.3198          0.3198          0.3198
   8.3400          0.3226          0.3226          0.3226
   8.3600          0.3254          0.3254          0.3254
   8.3800          0.3282          0.3282          0.3282
   8.4000          0.3310          0.3310          0.3310
   8.4200          0.3337          0.3337          0.3337
   8.4400          0.3363          0.3363          0.3363
   8.4600          0.3388          0.3388          0.3388
   8.4800          0.3412          0.3412          0.3412
   8.5000          0.3433          0.3433          0.3433
   8.5200          0.3452          0.3452          0.3452
   8.5400          0.3468          0.3468          0.3468
   8.5600          0.3480          0.3480          0.3480
   8.5800          0.3488          0.3488          0.3488
   8.6000          0.3492          0.3492          0.3492
   8.6200          0.3491          0.3491          0.3491
   8.6400          0.3486          0.3486          0.3486
   8.6600          0.3477          0.3477          0.3477
   8.6800          0.3464          0.3464          0.3464
   8.7000          0.3449          0.3449          0.3449
   8.7200          0.3431          0.3431          0.3431
   8.7400          0.3412          0.3412          0.3412
   8.7600          0.3393          0.3393          0.3393
   8.7800          0.3374          0.3374          0.3374
   8.8000          0.3356          0.3356          0.3356
   8.8200          0.3339          0.3339          0.3339
   8.8400          0.3325          0.3325          0.3325
   8.8600          0.3312          0.3312          0.3312
   8.8800          0.3301          0.3301          0.3301
   8.9000          0.3293          0.3293          0.3293
   8.9200          0.3286          0.3286          0.3286
   8.9400          0.3280          0.3280          0.3280
   8.9600          0.3276          0.3276          0.3276
   8.9800          0.3272          0.3272          0.3272
   9.0000          0.3268          0.3268          0.3268
   9.0200          0.3263          0.3263          0.3263
   9.0400          0.3258          0.3258          0.3258
   9.0600          0.3251          0.3251          0.3251
   9.0800          0.3242          0.3242          0.3242
   9.1000          0.3232          0.3232          0.3232
   9.1200          0.3220          0.3220          0.3220
   9.1400          0.3207          0.3207          0.3207
   9.1600          0.3192          0.3192          0.3192
   9.1800          0.3177          0.3177          0.3177
   9.2000          0.3161          0.3161          0.3161
   9.2200          0.3144          0.3144          0.3144
   9.2400          0.3127          0.3127          0.3127
   9.2600          0.3110          0.3110          0.3110
   9.2800          0.3094          0.3094          0.3094
   9.3000          0.3078          0.3078          0.3078
   9.3200          0.3062          0.3062          0.3062
   9.3400          0.3047          0.3047          0.3047
   9.3600          0.3032          0.3032          0.3032
   9.3800          0.3017          0.3017          0.3017
   9.4000          0.3003          0.3003          0.3003
   9.4200          0.2989          0.2989          0.2989
   9.4400          0.2975          0.2975          0.2975
   9.4600          0.2961          0.2961          0.2961
   9.4800          0.2947          0.2947          0.2947
   9.5000          0.2934          0.2934          0.2934
   9.5200          0.2921          0.2921          0.2921
   9.5400          0.2908          0.2908          0.2908
   9.5600          0.2896          0.2896          0.2896
   9.5800          0.2886          0.2886          0.2886
   9.6000          0.2876          0.2876          0.2876
   9.6200          0.2868          0.2868          0.2868
   9.6400          0.2862          0.2862          0.2862
   9.6600          0.2858          0.2858          0.2858
   9.6800          0.2856          0.2856          0.2856
   9.7000          0.2857          0.2857          0.2857
   9.7200          0.2861          0.2861          0.2861
   9.7400          0.2867          0.2867          0.2867
   9.7600          0.2877          0.2877          0.2877
   9.7800          0.2890          0.2890          0.2890
   9.8000          0.2907          0.2907          0.2907
   9.8200          0.2926          0.2926          0.2926
   9.8400          0.2948          0.2948          0.2948
   9.8600          0.2973          0.2973          0.2973
   9.8800          0.3001          0.3001          0.3001
   9.9000          0.3031          0.3031          0.3031
   9.9200          0.3063          0.3063          0.3063
   9.9400          0.3096          0.3096          0.3096
   9.9600          0.3131          0.3131          0.3131
   9.9800          0.3167          0.3167          0.3167
  10.0000          0.3203          0.3203          0.3203
  10.0200          0.3239          0.3239          0.3239
  10.0400          0.3275          0.3275          0.3275
  10.0600          0.3311          0.3311          0.3311
  10.0800          0.3346          0.3346          0.3346
  10.1000          0.3380          0.3380          0.3380
  10.1200          0.3413          0.3413          0.3413
  10.1400          0.3445          0.3445          0.3445
  10.1600          0.3476          0.3476          0.3476
  10.1800          0.3505          0.3505          0.3505
  10.2000          0.3533          0.3533          0.3533
  10.2200          0.3560          0.3560          0.3560
  10.2400          0.3585          0.3585          0.3585
  10.2600          0.3609          0.3609          0.3609
  10.2800          0.3632          0.3632          0.3632
  10.3000          0.3655          0.3655          0.3655
  10.3200          0.3676          0.3676          0.3676
  10.3400          0.3697          0.3697          0.3697
  10.3600          0.3719          0.3719          0.3719
  10.3800          0.3740          0.3740          0.3740
  10.4000          0.3762          0.3762          0.3762
  10.4200          0.3784          0.3784          0.3784
  10.4400          0.3808          0.3808          0.3808
  10.4600          0.3833          0.3833          0.3833
  10.4800          0.3859          0.3859          0.3859
  10.5000          0.3888          0.3888          0.3888
  10.5200          0.3918          0.3918          0.3918
  10.5400          0.3949          0.3949          0.3949
  10.5600          0.3982          0.3982          0.3982
  10.5800          0.4016          0.4016          0.4016
  10.6000          0.4051          0.4051          0.4051
  10.6200          0.4086          0.4086          0.4086
  10.6400          0.4121          0.4121          0.4121
  10.6600          0.4155          0.4155          0.4155
  10.6800          0.4188          0.4188          0.4188
  10.7000          0.4219          0.4219          0.4219
  10.7200          0.4247          0.4247          0.4247
  10.7400          0.4274          0.4274          0.4274
  10.7600          0.4298          0.4298          0.4298
  10.7800          0.4319          0.4319          0.4319
  10.8000          0.4337          0.4337          0.4337
  10.8200          0.4353          0.4353          0.4353
  10.8400          0.4366          0.4366          0.4366
  10.8600          0.4378          0.4378          0.4378
  10.8800          0.4387          0.4387          0.4387
  10.9000          0.4395          0.4395          0.4395
  10.9200          0.4401          0.4401          0.4401
  10.9400          0.4407          0.4407          0.4407
  10.9600          0.4411          0.4411          0.4411
  10.9800          0.4416          0.4416          0.4416
  11.0000          0.4419          0.4419          0.4419
  11.0200          0.4423          0.4423          0.4423
  11.0400          0.4427          0.4427          0.4427
  11.0600          0.4431          0.4431          0.4431
  11.0800          0.4435          0.4435          0.4435
  11.1000          0.4440          0.4440          0.4440
  11.1200          0.4446          0.4446          0.4446
  11.1400          0.4453          0.4453          0.4453
  11.1600          0.4461          0.4461          0.4461
  11.1800          0.4471          0.4471          0.4471
  11.2000          0.4481          0.4481          0.4481
  11.2200          0.4493          0.4493          0.4493
  11.2400          0.4507          0.4507          0.4507
  11.2600          0.4521          0.4521          0.4521
  11.2800          0.4536          0.4536          0.4536
  11.3000          0.4552          0.4552          0.4552
  11.3200          0.4568          0.4568          0.4568
  11.3400          0.4584          0.4584          0.4584
  11.3600          0.4600          0.4600          0.4600
  11.3800          0.4615          0.4615          0.4615
  11.4000          0.4630          0.4630          0.4630
  11.4200          0.4643          0.4643          0.4643
  11.4400          0.4655          0.4655          0.4655
  11.4600          0.4665          0.4665          0.4665
  11.4800          0.4675          0.4675          0.4675
  11.5000          0.4683          0.4683          0.4683
  11.5200          0.4690          0.4690          0.4690
  11.5400          0.4697          0.4697          0.4697
  11.5600          0.4703          0.4703          0.4703
  11.5800          0.4709          0.4709          0.4709
  11.6000          0.4714          0.4714          0.4714
  11.6200          0.4719          0.4719          0.4719
  11.6400          0.4723          0.4723          0.4723
  11.6600          0.4728          0.4728          0.4728
  11.6800          0.4731          0.4731          0.4731
  11.7000          0.4734          0.4734          0.4734
  11.7200          0.4736          0.4736          0.4736
  11.7400          0.4738          0.4738          0.4738
  11.7600          0.4738          0.4738          0.4738
  11.7800          0.4738          0.4738          0.4738
  11.8000          0.4738          0.4738          0.4738
  11.8200          0.4737          0.4737          0.4737
  11.8400          0.4737          0.4737          0.4737
  11.8600          0.4737          0.4737          0.4737
  11.8800          0.4737          0.4737          0.4737
  11.9000          0.4739          0.4739          0.4739
  11.9200          0.4742          0.4742          0.4742
  11.9400          0.4747          0.4747          0.4747
  11.9600          0.4754          0.4754          0.4754
  11.9800          0.4763          0.4763          0.4763
  12.0000          0.4775          0.4775          0.4775
  12.0200          0.4789          0.4789          0.4789
  12.0400          0.4805          0.4805          0.4805
  12.0600          0.4824          0.4824          0.4824
  12.0800          0.4844          0.4844          0.4844
  12.1000          0.4865          0.4865          0.4865
  12.1200          0.4888          0.4888          0.4888
  12.1400          0.4912          0.4912          0.4912
  12.1600          0.4935          0.4935          0.4935
  12.1800          0.4959          0.4959          0.4959
  12.2000          0.4983          0.4983          0.4983
  12.2200          0.5006          0.5006          0.5006
  12.2400          0.5028          0.5028          0.5028
  12.2600          0.5049          0.5049          0.5049
  12.2800          0.5070          0.5070          0.5070
  12.3000          0.5090          0.5090          0.5090
  12.3200          0.5109          0.5109          0.5109
  12.3400          0.5129          0.5129          0.5129
  12.3600          0.5148          0.5148          0.5148
  12.3800          0.5168          0.5168          0.5168
  12.4000          0.5189          0.5189          0.5189
  12.4200          0.5210          0.5210          0.5210
  12.4400          0.5233          0.5233          0.5233
  12.4600          0.5256          0.5256          0.5256
  12.4800          0.5279          0.5279          0.5279
  12.5000          0.5303          0.5303          0.5303
  12.5200          0.5327          0.5327          0.5327
  12.5400          0.5351          0.5351          0.5351
  12.5600          0.5373          0.5373          0.5373
  12.5800          0.5394          0.5394          0.5394
  12.6000          0.5413          0.5413          0.5413
  12.6200          0.5429          0.5429          0.5429
  12.6400          0.5442          0.5442          0.5442
  12.6600          0.5453          0.5453          0.5453
  12.6800          0.5460          0.5460          0.5460
  12.7000          0.5464          0.5464          0.5464
  12.7200          0.5466          0.5466          0.5466
  12.7400          0.5464          0.5464          0.5464
  12.7600          0.5460          0.5460          0.5460
  12.7800          0.5455          0.5455          0.5455
  12.8000          0.5448          0.5448          0.5448
  12.8200          0.5439          0.5439          0.5439
  12.8400          0.5430          0.5430          0.5430
  12.8600          0.5420          0.5420          0.5420
  12.8800          0.5410          0.5410          0.5410
  12.9000          0.5400          0.5400          0.5400
  12.9200          0.5390          0.5390          0.5390
  12.9400          0.5381          0.5381          0.5381
  12.9600          0.5373          0.5373          0.5373
  12.9800          0.5366          0.5366          0.5366
  13.0000          0.5361          0.5361          0.5361
  13.0200          0.5357          0.5357          0.5357
  13.0400          0.5356          0.5356          0.5356
  13.0600          0.5358          0.5358          0.5358
  13.0800          0.5363          0.5363          0.5363
  13.1000          0.5372          0.5372          0.5372
  13.1200          0.5386          0.5386          0.5386
  13.1400          0.5405          0.5405          0.5405
  13.1600          0.5430          0.5430          0.5430
  13.1800          0.5461          0.5461          0.5461
  13.2000          0.5498          0.5498          0.5498
  13.2200          0.5541          0.5541          0.5541
  13.2400          0.5591          0.5591          0.5591
  13.2600          0.5646          0.5646          0.5646
  13.2800          0.5707          0.5707          0.5707
  13.3000          0.5771          0.5771          0.5771
  13.3200          0.5838          0.5838          0.5838
  13.3400          0.5907          0.5907          0.5907
  13.3600          0.5975          0.5975          0.5975
  13.3800          0.6041          0.6041          0.6041
  13.4000          0.6103          0.6103          0.6103
  13.4200          0.6161          0.6161          0.6161
  13.4400          0.6212          0.6212          0.6212
  13.4600          0.6257          0.6257          0.6257
  13.4800          0.6295          0.6295          0.6295
  13.5000          0.6326          0.6326          0.6326
  13.5200          0.6351          0.6351          0.6351
  13.5400          0.6370          0.6370          0.6370
  13.5600          0.6386          0.6386          0.6386
  13.5800          0.6398          0.6398          0.6398
  13.6000          0.6409          0.6409          0.6409
  13.6200          0.6420          0.6420          0.6420
  13.6400          0.6432          0.6432          0.6432
  13.6600          0.6447          0.6447          0.6447
  13.6800          0.6464          0.6464          0.6464
  13.7000          0.6486          0.6486          0.6486
  13.7200          0.6514          0.6514          0.6514
  13.7400          0.6547          0.6547          0.6547
  13.7600          0.6585          0.6585          0.6585
  13.7800          0.6630          0.6630          0.6630
  13.8000          0.6681          0.6681          0.6681
  13.8200          0.6737          0.6737          0.6737
  13.8400          0.6799          0.6799          0.6799
  13.8600          0.6865          0.6865          0.6865
  13.8800          0.6935          0.6935          0.6935
  13.9000          0.7008          0.7008          0.7008
  13.9200          0.7082          0.7082          0.7082
  13.9400          0.7157          0.7157          0.7157
  13.9600          0.7232          0.7232          0.7232
  13.9800          0.7304          0.7304          0.7304
  14.0000          0.7374          0.7374          0.7374
  14.0200          0.7441          0.7441          0.7441
  14.0400          0.7503          0.7503          0.7503
  14.0600          0.7560          0.7560          0.7560
  14.0800          0.7613          0.7613          0.7613
  14.1000          0.7661          0.7661          0.7661
  14.1200          0.7705          0.7705          0.7705
  14.1400          0.7746          0.7746          0.7746
  14.1600          0.7784          0.7784          0.7784
  14.1800          0.7820          0.7820          0.7820
  14.2000          0.7855          0.7855          0.7855
  14.2200          0.7890          0.7890          0.7890
  14.2400          0.7926          0.7926          0.7926
  14.2600          0.7963          0.7963          0.7963
  14.2800          0.8001          0.8001          0.8001
  14.3000          0.8041          0.8041          0.8041
  14.3200          0.8081          0.8081          0.8081
  14.3400          0.8122          0.8122          0.8122
  14.3600          0.8163          0.8163          0.8163
  14.3800          0.8203          0.8203          0.8203
  14.4000          0.8241          0.8241          0.8241
  14.4200          0.8276          0.8276          0.8276
  14.4400          0.8307          0.8307          0.8307
  14.4600          0.8336          0.8336          0.8336
  14.4800          0.8360          0.8360          0.8360
  14.5000          0.8382          0.8382          0.8382
  14.5200          0.8401          0.8401          0.8401
  14.5400          0.8417          0.8417          0.8417
  14.5600          0.8432          0.8432          0.8432
  14.5800          0.8447          0.8447          0.8447
  14.6000          0.8462          0.8462          0.8462
  14.6200          0.8477          0.8477          0.8477
  14.6400          0.8495          0.8495          0.8495
  14.6600          0.8514          0.8514          0.8514
  14.6800          0.8536          0.8536          0.8536
  14.7000          0.8560          0.8560          0.8560
  14.7200          0.8586          0.8586          0.8586
  14.7400          0.8616          0.8616          0.8616
  14.7600          0.8648          0.8648          0.8648
  14.7800          0.8682          0.8682          0.8682
  14.8000          0.8719          0.8719          0.8719
  14.8200          0.8759          0.8759          0.8759
  14.8400          0.8800          0.8800          0.8800
  14.8600          0.8843          0.8843          0.8843
  14.8800          0.8888          0.8888          0.8888
  14.9000          0.8934          0.8934          0.8934
  14.9200          0.8981          0.8981          0.8981
  14.9400          0.9029          0.9029          0.9029
  14.9600          0.9076          0.9076          0.9076
  14.9800          0.9123          0.9123          0.9123
  15.0000          0.9168          0.9168          0.9168
  15.0200          0.9211          0.9211          0.9211
  15.0400          0.9252          0.9252          0.9252
  15.0600          0.9290          0.9290          0.9290
  15.0800          0.9325          0.9325          0.9325
  15.1000          0.9357          0.9357          0.9357
  15.1200          0.9386          0.9386          0.9386
  15.1400          0.9413          0.9413          0.9413
  15.1600          0.9437          0.9437          0.9437
  15.1800          0.9460          0.9460          0.9460
  15.2000          0.9482          0.9482          0.9482
  15.2200          0.9504          0.9504          0.9504
  15.2400          0.9528          0.9528          0.9528
  15.2600          0.9553          0.9553          0.9553
  15.2800          0.9582          0.9582          0.9582
  15.3000          0.9615          0.9615          0.9615
  15.3200          0.9652          0.9652          0.9652
  15.3400          0.9695          0.9695          0.9695
  15.3600          0.9743          0.9743          0.9743
  15.3800          0.9798          0.9798          0.9798
  15.4000          0.9858          0.9858          0.9858
  15.4200          0.9924          0.9924          0.9924
  15.4400          0.9994          0.9994          0.9994
  15.4600          1.0069          1.0069          1.0069
  15.4800          1.0146          1.0146          1.0146
  15.5000          1.0224          1.0224          1.0224
  15.5200          1.0303          1.0303          1.0303
  15.5400          1.0380          1.0380          1.0380
  15.5600          1.0455          1.0455          1.0455
  15.5800          1.0526          1.0526          1.0526
  15.6000          1.0593          1.0593          1.0593
  15.6200          1.0656          1.0656          1.0656
  15.6400          1.0716          1.0716          1.0716
  15.6600          1.0771          1.0771          1.0771
  15.6800          1.0825          1.0825          1.0825
  15.7000          1.0878          1.0878          1.0878
  15.7200          1.0932          1.0932          1.0932
  15.7400          1.0989          1.0989          1.0989
  15.7600          1.1051          1.1051          1.1051
  15.7800          1.1118          1.1118          1.1118
  15.8000          1.1193          1.1193          1.1193
  15.8200          1.1277          1.1277          1.1277
  15.8400          1.1371          1.1371          1.1371
  15.8600          1.1474          1.1474          1.1474
  15.8800          1.1587          1.1587          1.1587
  15.9000          1.1709          1.1709          1.1709
  15.9200          1.1839          1.1839          1.1839
  15.9400          1.1975          1.1975          1.1975
  15.9600          1.2115          1.2115          1.2115
  15.9800          1.2256          1.2256          1.2256
  16.0000          1.2396          1.2396          1.2396
  16.0200          1.2532          1.2532          1.2532
  16.0400          1.2662          1.2662          1.2662
  16.0600          1.2784          1.2784          1.2784
  16.0800          1.2897          1.2897          1.2897
  16.1000          1.2998          1.2998          1.2998
  16.1200          1.3089          1.3089          1.3089
  16.1400          1.3168          1.3168          1.3168
  16.1600          1.3235          1.3235          1.3235
  16.1800          1.3293          1.3293          1.3293
  16.2000          1.3342          1.3342          1.3342
  16.2200          1.3382          1.3382          1.3382
  16.2400          1.3417          1.3417          1.3417
  16.2600          1.3447          1.3447          1.3447
  16.2800          1.3474          1.3474          1.3474
  16.3000          1.3499          1.3499          1.3499
  16.3200          1.3525          1.3525          1.3525
  16.3400          1.3552          1.3552          1.3552
  16.3600          1.3583          1.3583          1.3583
  16.3800          1.3619          1.3619          1.3619
  16.4000          1.3661          1.3661          1.3661
  16.4200          1.3709          1.3709          1.3709
  16.4400          1.3766          1.3766          1.3766
  16.4600          1.3833          1.3833          1.3833
  16.4800          1.3908          1.3908          1.3908
  16.5000          1.3994          1.3994          1.3994
  16.5200          1.4090          1.4090          1.4090
  16.5400          1.4196          1.4196          1.4196
  16.5600          1.4311          1.4311          1.4311
  16.5800          1.4435          1.4435          1.4435
  16.6000          1.4567          1.4567          1.4567
  16.6200          1.4705          1.4705          1.4705
  16.6400          1.4848          1.4848          1.4848
  16.6600          1.4994          1.4994          1.4994
  16.6800          1.5141          1.5141          1.5141
  16.7000          1.5288          1.5288          1.5288
  16.7200          1.5431          1.5431          1.5431
  16.7400          1.5569          1.5569          1.5569
  16.7600          1.5701          1.5701          1.5701
  16.7800          1.5825          1.5825          1.5825
  16.8000          1.5940          1.5940          1.5940
  16.8200          1.6044          1.6044          1.6044
  16.8400          1.6138          1.6138          1.6138
  16.8600          1.6221          1.6221          1.6221
  16.8800          1.6294          1.6294          1.6294
  16.9000          1.6357          1.6357          1.6357
  16.9200          1.6412          1.6412          1.6412
  16.9400          1.6460          1.6460          1.6460
  16.9600          1.6503          1.6503          1.6503
  16.9800          1.6544          1.6544          1.6544
  17.0000          1.6584          1.6584          1.6584
  17.0200          1.6626          1.6626          1.6626
  17.0400          1.6671          1.6671          1.6671
  17.0600          1.6722          1.6722          1.6722
  17.0800          1.6781          1.6781          1.6781
  17.1000          1.6847          1.6847          1.6847
  17.1200          1.6923          1.6923          1.6923
  17.1400          1.7007          1.7007          1.7007
  17.1600          1.7101          1.7101          1.7101
  17.1800          1.7202          1.7202          1.7202
  17.2000          1.7311          1.7311          1.7311
  17.2200          1.7424          1.7424          1.7424
  17.2400          1.7541          1.7541          1.7541
  17.2600          1.7659          1.7659          1.7659
  17.2800          1.7776          1.7776          1.7776
  17.3000          1.7890          1.7890          1.7890
  17.3200          1.8000          1.8000          1.8000
  17.3400          1.8103          1.8103          1.8103
  17.3600          1.8200          1.8200          1.8200
  17.3800          1.8288          1.8288          1.8288
  17.4000          1.8369          1.8369          1.8369
  17.4200          1.8442          1.8442          1.8442
  17.4400          1.8509          1.8509          1.8509
  17.4600          1.8569          1.8569          1.8569
  17.4800          1.8625          1.8625          1.8625
  17.5000          1.8677          1.8677          1.8677
  17.5200          1.8726          1.8726          1.8726
  17.5400          1.8774          1.8774          1.8774
  17.5600          1.8821          1.8821          1.8821
  17.5800          1.8868          1.8868          1.8868
  17.6000          1.8917          1.8917          1.8917
  17.6200          1.8967          1.8967          1.8967
  17.6400          1.9020          1.9020          1.9020
  17.6600          1.9074          1.9074          1.9074
  17.6800          1.9130          1.9130          1.9130
  17.7000          1.9189          1.9189          1.9189
  17.7200          1.9249          1.9249          1.9249
  17.7400          1.9310          1.9310          1.9310
  17.7600          1.9372          1.9372          1.9372
  17.7800          1.9434          1.9434          1.9434
  17.8000          1.9495          1.9495          1.9495
  17.8200          1.9553          1.9553          1.9553
  17.8400          1.9608          1.9608          1.9608
  17.8600          1.9658          1.9658          1.9658
  17.8800          1.9702          1.9702          1.9702
  17.9000          1.9738          1.9738          1.9738
  17.9200          1.9766          1.9766          1.9766
  17.9400          1.9783          1.9783          1.9783
  17.9600          1.9790          1.9790          1.9790
  17.9800          1.9785          1.9785          1.9785
  18.0000          1.9770          1.9770          1.9770
  18.0200          1.9744          1.9744          1.9744
  18.0400          1.9709          1.9709          1.9709
  18.0600          1.9666          1.9666          1.9666
  18.0800          1.9617          1.9617          1.9617
  18.1000          1.9563          1.9563          1.9563
  18.1200          1.9505          1.9505          1.9505
  18.1400          1.9447          1.9447          1.9447
  18.1600          1.9388          1.9388          1.9388
  18.1800          1.9331          1.9331          1.9331
  18.2000          1.9278          1.9278          1.9278
  18.2200          1.9228          1.9228          1.9228
  18.2400          1.9184          1.9184          1.9184
  18.2600          1.9147          1.9147          1.9147
  18.2800          1.9117          1.9117          1.9117
  18.3000          1.9095          1.9095          1.9095
  18.3200          1.9083          1.9083          1.9083
  18.3400          1.9080          1.9080          1.9080
  18.3600          1.9089          1.9089          1.9089
  18.3800          1.9109          1.9109          1.9109
  18.4000          1.9141          1.9141          1.9141
  18.4200          1.9187          1.9187          1.9187
  18.4400          1.9245          1.9245          1.9245
  18.4600          1.9316          1.9316          1.9316
  18.4800          1.9399          1.9399          1.9399
  18.5000          1.9493          1.9493          1.9493
  18.5200          1.9598          1.9598          1.9598
  18.5400          1.9711          1.9711          1.9711
  18.5600          1.9829          1.9829          1.9829
  18.5800          1.9951          1.9951          1.9951
  18.6000          2.0072          2.0072          2.0072
  18.6200          2.0190          2.0190          2.0190
  18.6400          2.0302          2.0302          2.0302
  18.6600          2.0402          2.0402          2.0402
  18.6800          2.0489          2.0489          2.0489
  18.7000          2.0559          2.0559          2.0559
  18.7200          2.0611          2.0611          2.0611
  18.7400          2.0643          2.0643          2.0643
  18.7600          2.0654          2.0654          2.0654
  18.7800          2.0646          2.0646          2.0646
  18.8000          2.0620          2.0620          2.0620
  18.8200          2.0577          2.0577          2.0577
  18.8400          2.0521          2.0521          2.0521
  18.8600          2.0454          2.0454          2.0454
  18.8800          2.0380          2.0380          2.0380
  18.9000          2.0301          2.0301          2.0301
  18.9200          2.0222          2.0222          2.0222
  18.9400          2.0144          2.0144          2.0144
  18.9600          2.0070          2.0070          2.0070
  18.9800          2.0001          2.0001          2.0001
  19.0000          1.9940          1.9940          1.9940
  19.0200          1.9888          1.9888          1.9888
  19.0400          1.9844          1.9844          1.9844
  19.0600          1.9810          1.9810          1.9810
  19.0800          1.9786          1.9786          1.9786
  19.1000          1.9771          1.9771          1.9771
  19.1200          1.9766          1.9766          1.9766
  19.1400          1.9770          1.9770          1.9770
  19.1600          1.9783          1.9783          1.9783
  19.1800          1.9805          1.9805          1.9805
  19.2000          1.9836          1.9836          1.9836
  19.2200          1.9877          1.9877          1.9877
  19.2400          1.9926          1.9926          1.9926
  19.2600          1.9985          1.9985          1.9985
  19.2800          2.0054          2.0054          2.0054
  19.3000          2.0134          2.0134          2.0134
  19.3200          2.0224          2.0224          2.0224
  19.3400          2.0323          2.0323          2.0323
  19.3600          2.0433          2.0433          2.0433
  19.3800          2.0550          2.0550          2.0550
  19.4000          2.0674          2.0674          2.0674
  19.4200          2.0801          2.0801          2.0801
  19.4400          2.0929          2.0929          2.0929
  19.4600          2.1054          2.1054          2.1054
  19.4800          2.1171          2.1171          2.1171
  19.5000          2.1277          2.1277          2.1277
  19.5200          2.1368          2.1368          2.1368
  19.5400          2.1438          2.1438          2.1438
  19.5600          2.1487          2.1487          2.1487
  19.5800          2.1510          2.1510          2.1510
  19.6000          2.1509          2.1509          2.1509
  19.6200          2.1482          2.1482          2.1482
  19.6400          2.1430          2.1430          2.1430
  19.6600          2.1355          2.1355          2.1355
  19.6800          2.1259          2.1259          2.1259
  19.7000          2.1142          2.1142          2.1142
  19.7200          2.1007          2.1007          2.1007
  19.7400          2.0854          2.0854          2.0854
  19.7600          2.0684          2.0684          2.0684
  19.7800          2.0494          2.0494          2.0494
  19.8000          2.0284          2.0284          2.0284
  19.8200          2.0049          2.0049          2.0049
  19.8400          1.9785          1.9785          1.9785
  19.8600          1.9486          1.9486          1.9486
  19.8800          1.9146          1.9146          1.9146
  19.9000          1.8757          1.8757          1.8757
  19.9200          1.8314          1.8314          1.8314
  19.9400          1.7813          1.7813          1.7813
  19.9600          1.7256          1.7256          1.7256
  19.9800          1.6663          1.6663          1.6663
  20.0000          1.6073          1.6073          1.6073
