### real part of conductivity (in units of 10^15 sec^-1)
   0.0000          0.0000          0.0000          0.0000          0.0000          0.0000          0.0000
   0.0200          4.4460          4.4460          4.4460          0.0000          0.0000          0.0000
   0.0400          4.5121          4.5121          4.5121          0.0000          0.0000          0.0000
   0.0600          4.6189          4.6189          4.6189          0.0000          0.0000          0.0000
   0.0800          4.7615          4.7615          4.7615          0.0000          0.0000          0.0000
   0.1000          4.9335          4.9335          4.9335          0.0000          0.0000          0.0000
   0.1200          5.1273          5.1273          5.1273          0.0000          0.0000          0.0000
   0.1400          5.3346          5.3346          5.3346          0.0000          0.0000          0.0000
   0.1600          5.5468          5.5468          5.5468          0.0000          0.0000          0.0000
   0.1800          5.7553          5.7553          5.7553          0.0000          0.0000          0.0000
   0.2000          5.9525          5.9525          5.9525          0.0000          0.0000          0.0000
   0.2200          6.1315          6.1315          6.1315          0.0000          0.0000          0.0000
   0.2400          6.2867          6.2867          6.2867          0.0000          0.0000          0.0000
   0.2600          6.4141          6.4141          6.4141          0.0000          0.0000          0.0000
   0.2800          6.5112          6.5112          6.5112          0.0000          0.0000          0.0000
   0.3000          6.5771          6.5771          6.5771          0.0000          0.0000          0.0000
   0.3200          6.6124          6.6124          6.6124          0.0000          0.0000          0.0000
   0.3400          6.6189          6.6189          6.6189          0.0000          0.0000          0.0000
   0.3600          6.5995          6.5995          6.5995          0.0000          0.0000          0.0000
   0.3800          6.5577          6.5577          6.5577          0.0000          0.0000          0.0000
   0.4000          6.4978          6.4978          6.4978          0.0000          0.0000          0.0000
   0.4200          6.4239          6.4239          6.4239          0.0000          0.0000          0.0000
   0.4400          6.3402          6.3402          6.3402          0.0000          0.0000          0.0000
   0.4600          6.2508          6.2508          6.2508          0.0000          0.0000          0.0000
   0.4800          6.1592          6.1592          6.1592          0.0000          0.0000          0.0000
   0.5000          6.0684          6.0684          6.0684          0.0000          0.0000          0.0000
   0.5200          5.9808          5.9808          5.9808          0.0000          0.0000          0.0000
   0.5400          5.8983          5.8983          5.8983          0.0000          0.0000          0.0000
   0.5600          5.8221          5.8221          5.8221          0.0000          0.0000          0.0000
   0.5800          5.7531          5.7531          5.7531          0.0000          0.0000          0.0000
   0.6000          5.6915          5.6915          5.6915          0.0000          0.0000          0.0000
   0.6200          5.6372          5.6372          5.6372          0.0000          0.0000          0.0000
   0.6400          5.5897          5.5897          5.5897          0.0000          0.0000          0.0000
   0.6600          5.5484          5.5484          5.5484          0.0000          0.0000          0.0000
   0.6800          5.5123          5.5123          5.5123          0.0000          0.0000          0.0000
   0.7000          5.4803          5.4803          5.4803          0.0000          0.0000          0.0000
   0.7200          5.4511          5.4511          5.4511          0.0000          0.0000          0.0000
   0.7400          5.4235          5.4235          5.4235          0.0000          0.0000          0.0000
   0.7600          5.3959          5.3959          5.3959          0.0000          0.0000          0.0000
   0.7800          5.3672          5.3672          5.3672          0.0000          0.0000          0.0000
   0.8000          5.3360          5.3360          5.3360          0.0000          0.0000          0.0000
   0.8200          5.3010          5.3010          5.3010          0.0000          0.0000          0.0000
   0.8400          5.2615          5.2615          5.2615          0.0000          0.0000          0.0000
   0.8600          5.2165          5.2165          5.2165          0.0000          0.0000          0.0000
   0.8800          5.1656          5.1656          5.1656          0.0000          0.0000          0.0000
   0.9000          5.1087          5.1087          5.1087          0.0000          0.0000          0.0000
   0.9200          5.0457          5.0457          5.0457          0.0000          0.0000          0.0000
   0.9400          4.9772          4.9772          4.9772          0.0000          0.0000          0.0000
   0.9600          4.9037          4.9037          4.9037          0.0000          0.0000          0.0000
   0.9800          4.8261          4.8261          4.8261          0.0000          0.0000          0.0000
   1.0000          4.7455          4.7455          4.7455          0.0000          0.0000          0.0000
   1.0200          4.6630          4.6630          4.6630          0.0000          0.0000          0.0000
   1.0400          4.5796          4.5796          4.5796          0.0000          0.0000          0.0000
   1.0600          4.4965          4.4965          4.4965          0.0000          0.0000          0.0000
   1.0800          4.4147          4.4147          4.4147          0.0000          0.0000          0.0000
   1.1000          4.3349          4.3349          4.3349          0.0000          0.0000          0.0000
   1.1200          4.2578          4.2578          4.2578          0.0000          0.0000          0.0000
   1.1400          4.1839          4.1839          4.1839          0.0000          0.0000          0.0000
   1.1600          4.1135          4.1135          4.1135          0.0000          0.0000          0.0000
   1.1800          4.0466          4.0466          4.0466          0.0000          0.0000          0.0000
   1.2000          3.9834          3.9834          3.9834          0.0000          0.0000          0.0000
   1.2200          3.9237          3.9237          3.9237          0.0000          0.0000          0.0000
   1.2400          3.8672          3.8672          3.8672          0.0000          0.0000          0.0000
   1.2600          3.8138          3.8138          3.8138          0.0000          0.0000          0.0000
   1.2800          3.7633          3.7633          3.7633          0.0000          0.0000          0.0000
   1.3000          3.7153          3.7153          3.7153          0.0000          0.0000          0.0000
   1.3200          3.6696          3.6696          3.6696          0.0000          0.0000          0.0000
   1.3400          3.6262          3.6262          3.6262          0.0000          0.0000          0.0000
   1.3600          3.5847          3.5847          3.5847          0.0000          0.0000          0.0000
   1.3800          3.5451          3.5451          3.5451          0.0000          0.0000          0.0000
   1.4000          3.5073          3.5073          3.5073          0.0000          0.0000          0.0000
   1.4200          3.4713          3.4713          3.4713          0.0000          0.0000          0.0000
   1.4400          3.4372          3.4372          3.4372          0.0000          0.0000          0.0000
   1.4600          3.4048          3.4048          3.4048          0.0000          0.0000          0.0000
   1.4800          3.3745          3.3745          3.3745          0.0000          0.0000          0.0000
   1.5000          3.3463          3.3463          3.3463          0.0000          0.0000          0.0000
   1.5200          3.3204          3.3204          3.3204          0.0000          0.0000          0.0000
   1.5400          3.2969          3.2969          3.2969          0.0000          0.0000          0.0000
   1.5600          3.2761          3.2761          3.2761          0.0000          0.0000          0.0000
   1.5800          3.2581          3.2581          3.2581          0.0000          0.0000          0.0000
   1.6000          3.2429          3.2429          3.2429          0.0000          0.0000          0.0000
   1.6200          3.2308          3.2308          3.2308          0.0000          0.0000          0.0000
   1.6400          3.2217          3.2217          3.2217          0.0000          0.0000          0.0000
   1.6600          3.2155          3.2155          3.2155          0.0000          0.0000          0.0000
   1.6800          3.2121          3.2121          3.2121          0.0000          0.0000          0.0000
   1.7000          3.2112          3.2112          3.2112          0.0000          0.0000          0.0000
   1.7200          3.2126          3.2126          3.2126          0.0000          0.0000          0.0000
   1.7400          3.2157          3.2157          3.2157          0.0000          0.0000          0.0000
   1.7600          3.2203          3.2203          3.2203          0.0000          0.0000          0.0000
   1.7800          3.2257          3.2257          3.2257          0.0000          0.0000          0.0000
   1.8000          3.2314          3.2314          3.2314          0.0000          0.0000          0.0000
   1.8200          3.2371          3.2371          3.2371          0.0000          0.0000          0.0000
   1.8400          3.2424          3.2424          3.2424          0.0000          0.0000          0.0000
   1.8600          3.2468          3.2468          3.2468          0.0000          0.0000          0.0000
   1.8800          3.2502          3.2502          3.2502          0.0000          0.0000          0.0000
   1.9000          3.2527          3.2527          3.2527          0.0000          0.0000          0.0000
   1.9200          3.2542          3.2542          3.2542          0.0000          0.0000          0.0000
   1.9400          3.2552          3.2552          3.2552          0.0000          0.0000          0.0000
   1.9600          3.2561          3.2561          3.2561          0.0000          0.0000          0.0000
   1.9800          3.2575          3.2575          3.2575          0.0000          0.0000          0.0000
   2.0000          3.2603          3.2603          3.2603          0.0000          0.0000          0.0000
   2.0200          3.2653          3.2653          3.2653          0.0000          0.0000          0.0000
   2.0400          3.2737          3.2737          3.2737          0.0000          0.0000          0.0000
   2.0600          3.2863          3.2863          3.2863          0.0000          0.0000          0.0000
   2.0800          3.3042          3.3042          3.3042          0.0000          0.0000          0.0000
   2.1000          3.3285          3.3285          3.3285          0.0000          0.0000          0.0000
   2.1200          3.3600          3.3600          3.3600          0.0000          0.0000          0.0000
   2.1400          3.3993          3.3993          3.3993          0.0000          0.0000          0.0000
   2.1600          3.4471          3.4471          3.4471          0.0000          0.0000          0.0000
   2.1800          3.5037          3.5037          3.5037          0.0000          0.0000          0.0000
   2.2000          3.5692          3.5692          3.5692          0.0000          0.0000          0.0000
   2.2200          3.6436          3.6436          3.6436          0.0000          0.0000          0.0000
   2.2400          3.7265          3.7265          3.7265          0.0000          0.0000          0.0000
   2.2600          3.8175          3.8175          3.8175          0.0000          0.0000          0.0000
   2.2800          3.9161          3.9161          3.9161          0.0000          0.0000          0.0000
   2.3000          4.0216          4.0216          4.0216          0.0000          0.0000          0.0000
   2.3200          4.1333          4.1333          4.1333          0.0000          0.0000          0.0000
   2.3400          4.2507          4.2507          4.2507          0.0000          0.0000          0.0000
   2.3600          4.3731          4.3731          4.3731          0.0000          0.0000          0.0000
   2.3800          4.5001          4.5001          4.5001          0.0000          0.0000          0.0000
   2.4000          4.6315          4.6315          4.6315          0.0000          0.0000          0.0000
   2.4200          4.7669          4.7669          4.7669          0.0000          0.0000          0.0000
   2.4400          4.9063          4.9063          4.9063          0.0000          0.0000          0.0000
   2.4600          5.0498          5.0498          5.0498          0.0000          0.0000          0.0000
   2.4800          5.1973          5.1973          5.1973          0.0000          0.0000          0.0000
   2.5000          5.3490          5.3490          5.3490          0.0000          0.0000          0.0000
   2.5200          5.5050          5.5050          5.5050          0.0000          0.0000          0.0000
   2.5400          5.6652          5.6652          5.6652          0.0000          0.0000          0.0000
   2.5600          5.8297          5.8297          5.8297          0.0000          0.0000          0.0000
   2.5800          5.9982          5.9982          5.9982          0.0000          0.0000          0.0000
   2.6000          6.1704          6.1704          6.1704          0.0000          0.0000          0.0000
   2.6200          6.3461          6.3461          6.3461          0.0000          0.0000          0.0000
   2.6400          6.5246          6.5246          6.5246          0.0000          0.0000          0.0000
   2.6600          6.7056          6.7056          6.7056          0.0000          0.0000          0.0000
   2.6800          6.8883          6.8883          6.8883          0.0000          0.0000          0.0000
   2.7000          7.0720          7.0720          7.0720          0.0000          0.0000          0.0000
   2.7200          7.2559          7.2559          7.2559          0.0000          0.0000          0.0000
   2.7400          7.4392          7.4392          7.4392          0.0000          0.0000          0.0000
   2.7600          7.6208          7.6208          7.6208          0.0000          0.0000          0.0000
   2.7800          7.7997          7.7997          7.7997          0.0000          0.0000          0.0000
   2.8000          7.9747          7.9747          7.9747          0.0000          0.0000          0.0000
   2.8200          8.1444          8.1444          8.1444          0.0000          0.0000          0.0000
   2.8400          8.3074          8.3074          8.3074          0.0000          0.0000          0.0000
   2.8600          8.4622          8.4622          8.4622          0.0000          0.0000          0.0000
   2.8800          8.6073          8.6073          8.6073          0.0000          0.0000          0.0000
   2.9000          8.7413          8.7413          8.7413          0.0000          0.0000          0.0000
   2.9200          8.8627          8.8627          8.8627          0.0000          0.0000          0.0000
   2.9400          8.9705          8.9705          8.9705          0.0000          0.0000          0.0000
   2.9600          9.0640          9.0640          9.0640          0.0000          0.0000          0.0000
   2.9800          9.1428          9.1428          9.1428          0.0000          0.0000          0.0000
   3.0000          9.2070          9.2070          9.2070          0.0000          0.0000          0.0000
   3.0200          9.2571          9.2571          9.2571          0.0000          0.0000          0.0000
   3.0400          9.2944          9.2944          9.2944          0.0000          0.0000          0.0000
   3.0600          9.3200          9.3200          9.3200          0.0000          0.0000          0.0000
   3.0800          9.3359          9.3359          9.3359          0.0000          0.0000          0.0000
   3.1000          9.3440          9.3440          9.3440          0.0000          0.0000          0.0000
   3.1200          9.3460          9.3460          9.3460          0.0000          0.0000          0.0000
   3.1400          9.3439          9.3439          9.3439          0.0000          0.0000          0.0000
   3.1600          9.3392          9.3392          9.3392          0.0000          0.0000          0.0000
   3.1800          9.3329          9.3329          9.3329          0.0000          0.0000          0.0000
   3.2000          9.3257          9.3257          9.3257          0.0000          0.0000          0.0000
   3.2200          9.3178          9.3178          9.3178          0.0000          0.0000          0.0000
   3.2400          9.3088          9.3088          9.3088          0.0000          0.0000          0.0000
   3.2600          9.2979          9.2979          9.2979          0.0000          0.0000          0.0000
   3.2800          9.2841          9.2841          9.2841          0.0000          0.0000          0.0000
   3.3000          9.2660          9.2660          9.2660          0.0000          0.0000          0.0000
   3.3200          9.2423          9.2423          9.2423          0.0000          0.0000          0.0000
   3.3400          9.2119          9.2119          9.2119          0.0000          0.0000          0.0000
   3.3600          9.1737          9.1737          9.1737          0.0000          0.0000          0.0000
   3.3800          9.1272          9.1272          9.1272          0.0000          0.0000          0.0000
   3.4000          9.0720          9.0720          9.0720          0.0000          0.0000          0.0000
   3.4200          9.0084          9.0084          9.0084          0.0000          0.0000          0.0000
   3.4400          8.9368          8.9368          8.9368          0.0000          0.0000          0.0000
   3.4600          8.8581          8.8581          8.8581          0.0000          0.0000          0.0000
   3.4800          8.7732          8.7732          8.7732          0.0000          0.0000          0.0000
   3.5000          8.6833          8.6833          8.6833          0.0000          0.0000          0.0000
   3.5200          8.5896          8.5896          8.5896          0.0000          0.0000          0.0000
   3.5400          8.4931          8.4931          8.4931          0.0000          0.0000          0.0000
   3.5600          8.3946          8.3946          8.3946          0.0000          0.0000          0.0000
   3.5800          8.2948          8.2948          8.2948          0.0000          0.0000          0.0000
   3.6000          8.1943          8.1943          8.1943          0.0000          0.0000          0.0000
   3.6200          8.0932          8.0932          8.0932          0.0000          0.0000          0.0000
   3.6400          7.9915          7.9915          7.9915          0.0000          0.0000          0.0000
   3.6600          7.8894          7.8894          7.8894          0.0000          0.0000          0.0000
   3.6800          7.7865          7.7865          7.7865          0.0000          0.0000          0.0000
   3.7000          7.6828          7.6828          7.6828          0.0000          0.0000          0.0000
   3.7200          7.5783          7.5783          7.5783          0.0000          0.0000          0.0000
   3.7400          7.4730          7.4730          7.4730          0.0000          0.0000          0.0000
   3.7600          7.3671          7.3671          7.3671          0.0000          0.0000          0.0000
   3.7800          7.2609          7.2609          7.2609          0.0000          0.0000          0.0000
   3.8000          7.1552          7.1552          7.1552          0.0000          0.0000          0.0000
   3.8200          7.0508          7.0508          7.0508          0.0000          0.0000          0.0000
   3.8400          6.9485          6.9485          6.9485          0.0000          0.0000          0.0000
   3.8600          6.8496          6.8496          6.8496          0.0000          0.0000          0.0000
   3.8800          6.7553          6.7553          6.7553          0.0000          0.0000          0.0000
   3.9000          6.6668          6.6668          6.6668          0.0000          0.0000          0.0000
   3.9200          6.5853          6.5853          6.5853          0.0000          0.0000          0.0000
   3.9400          6.5120          6.5120          6.5120          0.0000          0.0000          0.0000
   3.9600          6.4476          6.4476          6.4476          0.0000          0.0000          0.0000
   3.9800          6.3927          6.3927          6.3927          0.0000          0.0000          0.0000
   4.0000          6.3477          6.3477          6.3477          0.0000          0.0000          0.0000
   4.0200          6.3124          6.3124          6.3124          0.0000          0.0000          0.0000
   4.0400          6.2863          6.2863          6.2863          0.0000          0.0000          0.0000
   4.0600          6.2685          6.2685          6.2685          0.0000          0.0000          0.0000
   4.0800          6.2577          6.2577          6.2577          0.0000          0.0000          0.0000
   4.1000          6.2525          6.2525          6.2525          0.0000          0.0000          0.0000
   4.1200          6.2510          6.2510          6.2510          0.0000          0.0000          0.0000
   4.1400          6.2512          6.2512          6.2512          0.0000          0.0000          0.0000
   4.1600          6.2512          6.2512          6.2512          0.0000          0.0000          0.0000
   4.1800          6.2491          6.2491          6.2491          0.0000          0.0000          0.0000
   4.2000          6.2431          6.2431          6.2431          0.0000          0.0000          0.0000
   4.2200          6.2317          6.2317          6.2317          0.0000          0.0000          0.0000
   4.2400          6.2135          6.2135          6.2135          0.0000          0.0000          0.0000
   4.2600          6.1878          6.1878          6.1878          0.0000          0.0000          0.0000
   4.2800          6.1539          6.1539          6.1539          0.0000          0.0000          0.0000
   4.3000          6.1117          6.1117          6.1117          0.0000          0.0000          0.0000
   4.3200          6.0615          6.0615          6.0615          0.0000          0.0000          0.0000
   4.3400          6.0036          6.0036          6.0036          0.0000          0.0000          0.0000
   4.3600          5.9390          5.9390          5.9390          0.0000          0.0000          0.0000
   4.3800          5.8687          5.8687          5.8687          0.0000          0.0000          0.0000
   4.4000          5.7938          5.7938          5.7938          0.0000          0.0000          0.0000
   4.4200          5.7157          5.7157          5.7157          0.0000          0.0000          0.0000
   4.4400          5.6356          5.6356          5.6356          0.0000          0.0000          0.0000
   4.4600          5.5549          5.5549          5.5549          0.0000          0.0000          0.0000
   4.4800          5.4748          5.4748          5.4748          0.0000          0.0000          0.0000
   4.5000          5.3964          5.3964          5.3964          0.0000          0.0000          0.0000
   4.5200          5.3206          5.3206          5.3206          0.0000          0.0000          0.0000
   4.5400          5.2481          5.2481          5.2481          0.0000          0.0000          0.0000
   4.5600          5.1796          5.1796          5.1796          0.0000          0.0000          0.0000
   4.5800          5.1154          5.1154          5.1154          0.0000          0.0000          0.0000
   4.6000          5.0557          5.0557          5.0557          0.0000          0.0000          0.0000
   4.6200          5.0007          5.0007          5.0007          0.0000          0.0000          0.0000
   4.6400          4.9503          4.9503          4.9503          0.0000          0.0000          0.0000
   4.6600          4.9045          4.9045          4.9045          0.0000          0.0000          0.0000
   4.6800          4.8632          4.8632          4.8632          0.0000          0.0000          0.0000
   4.7000          4.8265          4.8265          4.8265          0.0000          0.0000          0.0000
   4.7200          4.7943          4.7943          4.7943          0.0000          0.0000          0.0000
   4.7400          4.7665          4.7665          4.7665          0.0000          0.0000          0.0000
   4.7600          4.7432          4.7432          4.7432          0.0000          0.0000          0.0000
   4.7800          4.7243          4.7243          4.7243          0.0000          0.0000          0.0000
   4.8000          4.7097          4.7097          4.7097          0.0000          0.0000          0.0000
   4.8200          4.6992          4.6992          4.6992          0.0000          0.0000          0.0000
   4.8400          4.6925          4.6925          4.6925          0.0000          0.0000          0.0000
   4.8600          4.6890          4.6890          4.6890          0.0000          0.0000          0.0000
   4.8800          4.6880          4.6880          4.6880          0.0000          0.0000          0.0000
   4.9000          4.6886          4.6886          4.6886          0.0000          0.0000          0.0000
   4.9200          4.6899          4.6899          4.6899          0.0000          0.0000          0.0000
   4.9400          4.6907          4.6907          4.6907          0.0000          0.0000          0.0000
   4.9600          4.6899          4.6899          4.6899          0.0000          0.0000          0.0000
   4.9800          4.6863          4.6863          4.6863          0.0000          0.0000          0.0000
   5.0000          4.6787          4.6787          4.6787          0.0000          0.0000          0.0000
   5.0200          4.6663          4.6663          4.6663          0.0000          0.0000          0.0000
   5.0400          4.6483          4.6483          4.6483          0.0000          0.0000          0.0000
   5.0600          4.6241          4.6241          4.6241          0.0000          0.0000          0.0000
   5.0800          4.5934          4.5934          4.5934          0.0000          0.0000          0.0000
   5.1000          4.5561          4.5561          4.5561          0.0000          0.0000          0.0000
   5.1200          4.5125          4.5125          4.5125          0.0000          0.0000          0.0000
   5.1400          4.4630          4.4630          4.4630          0.0000          0.0000          0.0000
   5.1600          4.4082          4.4082          4.4082          0.0000          0.0000          0.0000
   5.1800          4.3488          4.3488          4.3488          0.0000          0.0000          0.0000
   5.2000          4.2858          4.2858          4.2858          0.0000          0.0000          0.0000
   5.2200          4.2201          4.2201          4.2201          0.0000          0.0000          0.0000
   5.2400          4.1527          4.1527          4.1527          0.0000          0.0000          0.0000
   5.2600          4.0846          4.0846          4.0846          0.0000          0.0000          0.0000
   5.2800          4.0167          4.0167          4.0167          0.0000          0.0000          0.0000
   5.3000          3.9499          3.9499          3.9499          0.0000          0.0000          0.0000
   5.3200          3.8852          3.8852          3.8852          0.0000          0.0000          0.0000
   5.3400          3.8232          3.8232          3.8232          0.0000          0.0000          0.0000
   5.3600          3.7648          3.7648          3.7648          0.0000          0.0000          0.0000
   5.3800          3.7105          3.7105          3.7105          0.0000          0.0000          0.0000
   5.4000          3.6609          3.6609          3.6609          0.0000          0.0000          0.0000
   5.4200          3.6164          3.6164          3.6164          0.0000          0.0000          0.0000
   5.4400          3.5774          3.5774          3.5774          0.0000          0.0000          0.0000
   5.4600          3.5443          3.5443          3.5443          0.0000          0.0000          0.0000
   5.4800          3.5172          3.5172          3.5172          0.0000          0.0000          0.0000
   5.5000          3.4962          3.4962          3.4962          0.0000          0.0000          0.0000
   5.5200          3.4814          3.4814          3.4814          0.0000          0.0000          0.0000
   5.5400          3.4727          3.4727          3.4727          0.0000          0.0000          0.0000
   5.5600          3.4701          3.4701          3.4701          0.0000          0.0000          0.0000
   5.5800          3.4732          3.4732          3.4732          0.0000          0.0000          0.0000
   5.6000          3.4817          3.4817          3.4817          0.0000          0.0000          0.0000
   5.6200          3.4951          3.4951          3.4951          0.0000          0.0000          0.0000
   5.6400          3.5130          3.5130          3.5130          0.0000          0.0000          0.0000
   5.6600          3.5346          3.5346          3.5346          0.0000          0.0000          0.0000
   5.6800          3.5593          3.5593          3.5593          0.0000          0.0000          0.0000
   5.7000          3.5861          3.5861          3.5861          0.0000          0.0000          0.0000
   5.7200          3.6143          3.6143          3.6143          0.0000          0.0000          0.0000
   5.7400          3.6427          3.6427          3.6427          0.0000          0.0000          0.0000
   5.7600          3.6704          3.6704          3.6704          0.0000          0.0000          0.0000
   5.7800          3.6964          3.6964          3.6964          0.0000          0.0000          0.0000
   5.8000          3.7197          3.7197          3.7197          0.0000          0.0000          0.0000
   5.8200          3.7396          3.7396          3.7396          0.0000          0.0000          0.0000
   5.8400          3.7551          3.7551          3.7551          0.0000          0.0000          0.0000
   5.8600          3.7657          3.7657          3.7657          0.0000          0.0000          0.0000
   5.8800          3.7711          3.7711          3.7711          0.0000          0.0000          0.0000
   5.9000          3.7709          3.7709          3.7709          0.0000          0.0000          0.0000
   5.9200          3.7653          3.7653          3.7653          0.0000          0.0000          0.0000
   5.9400          3.7544          3.7544          3.7544          0.0000          0.0000          0.0000
   5.9600          3.7387          3.7387          3.7387          0.0000          0.0000          0.0000
   5.9800          3.7188          3.7188          3.7188          0.0000          0.0000          0.0000
   6.0000          3.6953          3.6953          3.6953          0.0000          0.0000          0.0000
   6.0200          3.6690          3.6690          3.6690          0.0000          0.0000          0.0000
   6.0400          3.6406          3.6406          3.6406          0.0000          0.0000          0.0000
   6.0600          3.6108          3.6108          3.6108          0.0000          0.0000          0.0000
   6.0800          3.5801          3.5801          3.5801          0.0000          0.0000          0.0000
   6.1000          3.5490          3.5490          3.5490          0.0000          0.0000          0.0000
   6.1200          3.5178          3.5178          3.5178          0.0000          0.0000          0.0000
   6.1400          3.4865          3.4865          3.4865          0.0000          0.0000          0.0000
   6.1600          3.4552          3.4552          3.4552          0.0000          0.0000          0.0000
   6.1800          3.4238          3.4238          3.4238          0.0000          0.0000          0.0000
   6.2000          3.3921          3.3921          3.3921          0.0000          0.0000          0.0000
   6.2200          3.3599          3.3599          3.3599          0.0000          0.0000          0.0000
   6.2400          3.3269          3.3269          3.3269          0.0000          0.0000          0.0000
   6.2600          3.2930          3.2930          3.2930          0.0000          0.0000          0.0000
   6.2800          3.2581          3.2581          3.2581          0.0000          0.0000          0.0000
   6.3000          3.2222          3.2222          3.2222          0.0000          0.0000          0.0000
   6.3200          3.1853          3.1853          3.1853          0.0000          0.0000          0.0000
   6.3400          3.1477          3.1477          3.1477          0.0000          0.0000          0.0000
   6.3600          3.1095          3.1095          3.1095          0.0000          0.0000          0.0000
   6.3800          3.0710          3.0710          3.0710          0.0000          0.0000          0.0000
   6.4000          3.0325          3.0325          3.0325          0.0000          0.0000          0.0000
   6.4200          2.9945          2.9945          2.9945          0.0000          0.0000          0.0000
   6.4400          2.9572          2.9572          2.9572          0.0000          0.0000          0.0000
   6.4600          2.9210          2.9210          2.9210          0.0000          0.0000          0.0000
   6.4800          2.8861          2.8861          2.8861          0.0000          0.0000          0.0000
   6.5000          2.8530          2.8530          2.8530          0.0000          0.0000          0.0000
   6.5200          2.8219          2.8219          2.8219          0.0000          0.0000          0.0000
   6.5400          2.7930          2.7930          2.7930          0.0000          0.0000          0.0000
   6.5600          2.7666          2.7666          2.7666          0.0000          0.0000          0.0000
   6.5800          2.7428          2.7428          2.7428          0.0000          0.0000          0.0000
   6.6000          2.7217          2.7217          2.7217          0.0000          0.0000          0.0000
   6.6200          2.7035          2.7035          2.7035          0.0000          0.0000          0.0000
   6.6400          2.6882          2.6882          2.6882          0.0000          0.0000          0.0000
   6.6600          2.6756          2.6756          2.6756          0.0000          0.0000          0.0000
   6.6800          2.6658          2.6658          2.6658          0.0000          0.0000          0.0000
   6.7000          2.6585          2.6585          2.6585          0.0000          0.0000          0.0000
   6.7200          2.6535          2.6535          2.6535          0.0000          0.0000          0.0000
   6.7400          2.6506          2.6506          2.6506          0.0000          0.0000          0.0000
   6.7600          2.6494          2.6494          2.6494          0.0000          0.0000          0.0000
   6.7800          2.6496          2.6496          2.6496          0.0000          0.0000          0.0000
   6.8000          2.6508          2.6508          2.6508          0.0000          0.0000          0.0000
   6.8200          2.6527          2.6527          2.6527          0.0000          0.0000          0.0000
   6.8400          2.6549          2.6549          2.6549          0.0000          0.0000          0.0000
   6.8600          2.6572          2.6572          2.6572          0.0000          0.0000          0.0000
   6.8800          2.6593          2.6593          2.6593          0.0000          0.0000          0.0000
   6.9000          2.6608          2.6608          2.6608          0.0000          0.0000          0.0000
   6.9200          2.6616          2.6616          2.6616          0.0000          0.0000          0.0000
   6.9400          2.6613          2.6613          2.6613          0.0000          0.0000          0.0000
   6.9600          2.6599          2.6599          2.6599          0.0000          0.0000          0.0000
   6.9800          2.6569          2.6569          2.6569          0.0000          0.0000          0.0000
   7.0000          2.6523          2.6523          2.6523          0.0000          0.0000          0.0000
   7.0200          2.6457          2.6457          2.6457          0.0000          0.0000          0.0000
   7.0400          2.6369          2.6369          2.6369          0.0000          0.0000          0.0000
   7.0600          2.6258          2.6258          2.6258          0.0000          0.0000          0.0000
   7.0800          2.6120          2.6120          2.6120          0.0000          0.0000          0.0000
   7.1000          2.5954          2.5954          2.5954          0.0000          0.0000          0.0000
   7.1200          2.5759          2.5759          2.5759          0.0000          0.0000          0.0000
   7.1400          2.5534          2.5534          2.5534          0.0000          0.0000          0.0000
   7.1600          2.5280          2.5280          2.5280          0.0000          0.0000          0.0000
   7.1800          2.4998          2.4998          2.4998          0.0000          0.0000          0.0000
   7.2000          2.4689          2.4689          2.4689          0.0000          0.0000          0.0000
   7.2200          2.4356          2.4356          2.4356          0.0000          0.0000          0.0000
   7.2400          2.4004          2.4004          2.4004          0.0000          0.0000          0.0000
   7.2600          2.3635          2.3635          2.3635          0.0000          0.0000          0.0000
   7.2800          2.3256          2.3256          2.3256          0.0000          0.0000          0.0000
   7.3000          2.2871          2.2871          2.2871          0.0000          0.0000          0.0000
   7.3200          2.2487          2.2487          2.2487          0.0000          0.0000          0.0000
   7.3400          2.2108          2.2108          2.2108          0.0000          0.0000          0.0000
   7.3600          2.1739          2.1739          2.1739          0.0000          0.0000          0.0000
   7.3800          2.1387          2.1387          2.1387          0.0000          0.0000          0.0000
   7.4000          2.1054          2.1054          2.1054          0.0000          0.0000          0.0000
   7.4200          2.0744          2.0744          2.0744          0.0000          0.0000          0.0000
   7.4400          2.0459          2.0459          2.0459          0.0000          0.0000          0.0000
   7.4600          2.0201          2.0201          2.0201          0.0000          0.0000          0.0000
   7.4800          1.9972          1.9972          1.9972          0.0000          0.0000          0.0000
   7.5000          1.9771          1.9771          1.9771          0.0000          0.0000          0.0000
   7.5200          1.9599          1.9599          1.9599          0.0000          0.0000          0.0000
   7.5400          1.9456          1.9456          1.9456          0.0000          0.0000          0.0000
   7.5600          1.9342          1.9342          1.9342          0.0000          0.0000          0.0000
   7.5800          1.9256          1.9256          1.9256          0.0000          0.0000          0.0000
   7.6000          1.9199          1.9199          1.9199          0.0000          0.0000          0.0000
   7.6200          1.9171          1.9171          1.9171          0.0000          0.0000          0.0000
   7.6400          1.9171          1.9171          1.9171          0.0000          0.0000          0.0000
   7.6600          1.9200          1.9200          1.9200          0.0000          0.0000          0.0000
   7.6800          1.9258          1.9258          1.9258          0.0000          0.0000          0.0000
   7.7000          1.9342          1.9342          1.9342          0.0000          0.0000          0.0000
   7.7200          1.9452          1.9452          1.9452          0.0000          0.0000          0.0000
   7.7400          1.9585          1.9585          1.9585          0.0000          0.0000          0.0000
   7.7600          1.9738          1.9738          1.9738          0.0000          0.0000          0.0000
   7.7800          1.9907          1.9907          1.9907          0.0000          0.0000          0.0000
   7.8000          2.0087          2.0087          2.0087          0.0000          0.0000          0.0000
   7.8200          2.0272          2.0272          2.0272          0.0000          0.0000          0.0000
   7.8400          2.0459          2.0459          2.0459          0.0000          0.0000          0.0000
   7.8600          2.0640          2.0640          2.0640          0.0000          0.0000          0.0000
   7.8800          2.0813          2.0813          2.0813          0.0000          0.0000          0.0000
   7.9000          2.0971          2.0971          2.0971          0.0000          0.0000          0.0000
   7.9200          2.1113          2.1113          2.1113          0.0000          0.0000          0.0000
   7.9400          2.1234          2.1234          2.1234          0.0000          0.0000          0.0000
   7.9600          2.1336          2.1336          2.1336          0.0000          0.0000          0.0000
   7.9800          2.1416          2.1416          2.1416          0.0000          0.0000          0.0000
   8.0000          2.1477          2.1477          2.1477          0.0000          0.0000          0.0000
   8.0200          2.1520          2.1520          2.1520          0.0000          0.0000          0.0000
   8.0400          2.1548          2.1548          2.1548          0.0000          0.0000          0.0000
   8.0600          2.1564          2.1564          2.1564          0.0000          0.0000          0.0000
   8.0800          2.1571          2.1571          2.1571          0.0000          0.0000          0.0000
   8.1000          2.1573          2.1573          2.1573          0.0000          0.0000          0.0000
   8.1200          2.1574          2.1574          2.1574          0.0000          0.0000          0.0000
   8.1400          2.1575          2.1575          2.1575          0.0000          0.0000          0.0000
   8.1600          2.1580          2.1580          2.1580          0.0000          0.0000          0.0000
   8.1800          2.1590          2.1590          2.1590          0.0000          0.0000          0.0000
   8.2000          2.1606          2.1606          2.1606          0.0000          0.0000          0.0000
   8.2200          2.1629          2.1629          2.1629          0.0000          0.0000          0.0000
   8.2400          2.1658          2.1658          2.1658          0.0000          0.0000          0.0000
   8.2600          2.1695          2.1695          2.1695          0.0000          0.0000          0.0000
   8.2800          2.1737          2.1737          2.1737          0.0000          0.0000          0.0000
   8.3000          2.1786          2.1786          2.1786          0.0000          0.0000          0.0000
   8.3200          2.1841          2.1841          2.1841          0.0000          0.0000          0.0000
   8.3400          2.1902          2.1902          2.1902          0.0000          0.0000          0.0000
   8.3600          2.1970          2.1970          2.1970          0.0000          0.0000          0.0000
   8.3800          2.2044          2.2044          2.2044          0.0000          0.0000          0.0000
   8.4000          2.2127          2.2127          2.2127          0.0000          0.0000          0.0000
   8.4200          2.2220          2.2220          2.2220          0.0000          0.0000          0.0000
   8.4400          2.2323          2.2323          2.2323          0.0000          0.0000          0.0000
   8.4600          2.2440          2.2440          2.2440          0.0000          0.0000          0.0000
   8.4800          2.2572          2.2572          2.2572          0.0000          0.0000          0.0000
   8.5000          2.2720          2.2720          2.2720          0.0000          0.0000          0.0000
   8.5200          2.2886          2.2886          2.2886          0.0000          0.0000          0.0000
   8.5400          2.3071          2.3071          2.3071          0.0000          0.0000          0.0000
   8.5600          2.3275          2.3275          2.3275          0.0000          0.0000          0.0000
   8.5800          2.3497          2.3497          2.3497          0.0000          0.0000          0.0000
   8.6000          2.3735          2.3735          2.3735          0.0000          0.0000          0.0000
   8.6200          2.3988          2.3988          2.3988          0.0000          0.0000          0.0000
   8.6400          2.4252          2.4252          2.4252          0.0000          0.0000          0.0000
   8.6600          2.4522          2.4522          2.4522          0.0000          0.0000          0.0000
   8.6800          2.4794          2.4794          2.4794          0.0000          0.0000          0.0000
   8.7000          2.5064          2.5064          2.5064          0.0000          0.0000          0.0000
   8.7200          2.5325          2.5325          2.5325          0.0000          0.0000          0.0000
   8.7400          2.5573          2.5573          2.5573          0.0000          0.0000          0.0000
   8.7600          2.5805          2.5805          2.5805          0.0000          0.0000          0.0000
   8.7800          2.6016          2.6016          2.6016          0.0000          0.0000          0.0000
   8.8000          2.6205          2.6205          2.6205          0.0000          0.0000          0.0000
   8.8200          2.6370          2.6370          2.6370          0.0000          0.0000          0.0000
   8.8400          2.6514          2.6514          2.6514          0.0000          0.0000          0.0000
   8.8600          2.6638          2.6638          2.6638          0.0000          0.0000          0.0000
   8.8800          2.6744          2.6744          2.6744          0.0000          0.0000          0.0000
   8.9000          2.6838          2.6838          2.6838          0.0000          0.0000          0.0000
   8.9200          2.6923          2.6923          2.6923          0.0000          0.0000          0.0000
   8.9400          2.7005          2.7005          2.7005          0.0000          0.0000          0.0000
   8.9600          2.7087          2.7087          2.7087          0.0000          0.0000          0.0000
   8.9800          2.7175          2.7175          2.7175          0.0000          0.0000          0.0000
   9.0000          2.7270          2.7270          2.7270          0.0000          0.0000          0.0000
   9.0200          2.7375          2.7375          2.7375          0.0000          0.0000          0.0000
   9.0400          2.7490          2.7490          2.7490          0.0000          0.0000          0.0000
   9.0600          2.7617          2.7617          2.7617          0.0000          0.0000          0.0000
   9.0800          2.7753          2.7753          2.7753          0.0000          0.0000          0.0000
   9.1000          2.7896          2.7896          2.7896          0.0000          0.0000          0.0000
   9.1200          2.8044          2.8044          2.8044          0.0000          0.0000          0.0000
   9.1400          2.8193          2.8193          2.8193          0.0000          0.0000          0.0000
   9.1600          2.8340          2.8340          2.8340          0.0000          0.0000          0.0000
   9.1800          2.8482          2.8482          2.8482          0.0000          0.0000          0.0000
   9.2000          2.8616          2.8616          2.8616          0.0000          0.0000          0.0000
   9.2200          2.8739          2.8739          2.8739          0.0000          0.0000          0.0000
   9.2400          2.8850          2.8850          2.8850          0.0000          0.0000          0.0000
   9.2600          2.8947          2.8947          2.8947          0.0000          0.0000          0.0000
   9.2800          2.9030          2.9030          2.9030          0.0000          0.0000          0.0000
   9.3000          2.9098          2.9098          2.9098          0.0000          0.0000          0.0000
   9.3200          2.9152          2.9152          2.9152          0.0000          0.0000          0.0000
   9.3400          2.9191          2.9191          2.9191          0.0000          0.0000          0.0000
   9.3600          2.9217          2.9217          2.9217          0.0000          0.0000          0.0000
   9.3800          2.9229          2.9229          2.9229          0.0000          0.0000          0.0000
   9.4000          2.9228          2.9228          2.9228          0.0000          0.0000          0.0000
   9.4200          2.9214          2.9214          2.9214          0.0000          0.0000          0.0000
   9.4400          2.9186          2.9186          2.9186          0.0000          0.0000          0.0000
   9.4600          2.9143          2.9143          2.9143          0.0000          0.0000          0.0000
   9.4800          2.9084          2.9084          2.9084          0.0000          0.0000          0.0000
   9.5000          2.9005          2.9005          2.9005          0.0000          0.0000          0.0000
   9.5200          2.8906          2.8906          2.8906          0.0000          0.0000          0.0000
   9.5400          2.8784          2.8784          2.8784          0.0000          0.0000          0.0000
   9.5600          2.8637          2.8637          2.8637          0.0000          0.0000          0.0000
   9.5800          2.8463          2.8463          2.8463          0.0000          0.0000          0.0000
   9.6000          2.8262          2.8262          2.8262          0.0000          0.0000          0.0000
   9.6200          2.8033          2.8033          2.8033          0.0000          0.0000          0.0000
   9.6400          2.7777          2.7777          2.7777          0.0000          0.0000          0.0000
   9.6600          2.7496          2.7496          2.7496          0.0000          0.0000          0.0000
   9.6800          2.7192          2.7192          2.7192          0.0000          0.0000          0.0000
   9.7000          2.6869          2.6869          2.6869          0.0000          0.0000          0.0000
   9.7200          2.6531          2.6531          2.6531          0.0000          0.0000          0.0000
   9.7400          2.6182          2.6182          2.6182          0.0000          0.0000          0.0000
   9.7600          2.5828          2.5828          2.5828          0.0000          0.0000          0.0000
   9.7800          2.5473          2.5473          2.5473          0.0000          0.0000          0.0000
   9.8000          2.5121          2.5121          2.5121          0.0000          0.0000          0.0000
   9.8200          2.4778          2.4778          2.4778          0.0000          0.0000          0.0000
   9.8400          2.4447          2.4447          2.4447          0.0000          0.0000          0.0000
   9.8600          2.4132          2.4132          2.4132          0.0000          0.0000          0.0000
   9.8800          2.3835          2.3835          2.3835          0.0000          0.0000          0.0000
   9.9000          2.3558          2.3558          2.3558          0.0000          0.0000          0.0000
   9.9200          2.3302          2.3302          2.3302          0.0000          0.0000          0.0000
   9.9400          2.3068          2.3068          2.3068          0.0000          0.0000          0.0000
   9.9600          2.2857          2.2857          2.2857          0.0000          0.0000          0.0000
   9.9800          2.2668          2.2668          2.2668          0.0000          0.0000          0.0000
  10.0000          2.2500          2.2500          2.2500          0.0000          0.0000          0.0000
  10.0200          2.2351          2.2351          2.2351          0.0000          0.0000          0.0000
  10.0400          2.2222          2.2222          2.2222          0.0000          0.0000          0.0000
  10.0600          2.2110          2.2110          2.2110          0.0000          0.0000          0.0000
  10.0800          2.2013          2.2013          2.2013          0.0000          0.0000          0.0000
  10.1000          2.1930          2.1930          2.1930          0.0000          0.0000          0.0000
  10.1200          2.1859          2.1859          2.1859          0.0000          0.0000          0.0000
  10.1400          2.1798          2.1798          2.1798          0.0000          0.0000          0.0000
  10.1600          2.1746          2.1746          2.1746          0.0000          0.0000          0.0000
  10.1800          2.1702          2.1702          2.1702          0.0000          0.0000          0.0000
  10.2000          2.1662          2.1662          2.1662          0.0000          0.0000          0.0000
  10.2200          2.1627          2.1627          2.1627          0.0000          0.0000          0.0000
  10.2400          2.1595          2.1595          2.1595          0.0000          0.0000          0.0000
  10.2600          2.1563          2.1563          2.1563          0.0000          0.0000          0.0000
  10.2800          2.1531          2.1531          2.1531          0.0000          0.0000          0.0000
  10.3000          2.1498          2.1498          2.1498          0.0000          0.0000          0.0000
  10.3200          2.1461          2.1461          2.1461          0.0000          0.0000          0.0000
  10.3400          2.1421          2.1421          2.1421          0.0000          0.0000          0.0000
  10.3600          2.1376          2.1376          2.1376          0.0000          0.0000          0.0000
  10.3800          2.1325          2.1325          2.1325          0.0000          0.0000          0.0000
  10.4000          2.1269          2.1269          2.1269          0.0000          0.0000          0.0000
  10.4200          2.1208          2.1208          2.1208          0.0000          0.0000          0.0000
  10.4400          2.1143          2.1143          2.1143          0.0000          0.0000          0.0000
  10.4600          2.1074          2.1074          2.1074          0.0000          0.0000          0.0000
  10.4800          2.1004          2.1004          2.1004          0.0000          0.0000          0.0000
  10.5000          2.0934          2.0934          2.0934          0.0000          0.0000          0.0000
  10.5200          2.0866          2.0866          2.0866          0.0000          0.0000          0.0000
  10.5400          2.0803          2.0803          2.0803          0.0000          0.0000          0.0000
  10.5600          2.0746          2.0746          2.0746          0.0000          0.0000          0.0000
  10.5800          2.0698          2.0698          2.0698          0.0000          0.0000          0.0000
  10.6000          2.0661          2.0661          2.0661          0.0000          0.0000          0.0000
  10.6200          2.0635          2.0635          2.0635          0.0000          0.0000          0.0000
  10.6400          2.0621          2.0621          2.0621          0.0000          0.0000          0.0000
  10.6600          2.0621          2.0621          2.0621          0.0000          0.0000          0.0000
  10.6800          2.0633          2.0633          2.0633          0.0000          0.0000          0.0000
  10.7000          2.0657          2.0657          2.0657          0.0000          0.0000          0.0000
  10.7200          2.0692          2.0692          2.0692          0.0000          0.0000          0.0000
  10.7400          2.0737          2.0737          2.0737          0.0000          0.0000          0.0000
  10.7600          2.0789          2.0789          2.0789          0.0000          0.0000          0.0000
  10.7800          2.0848          2.0848          2.0848          0.0000          0.0000          0.0000
  10.8000          2.0911          2.0911          2.0911          0.0000          0.0000          0.0000
  10.8200          2.0977          2.0977          2.0977          0.0000          0.0000          0.0000
  10.8400          2.1044          2.1044          2.1044          0.0000          0.0000          0.0000
  10.8600          2.1109          2.1109          2.1109          0.0000          0.0000          0.0000
  10.8800          2.1173          2.1173          2.1173          0.0000          0.0000          0.0000
  10.9000          2.1233          2.1233          2.1233          0.0000          0.0000          0.0000
  10.9200          2.1289          2.1289          2.1289          0.0000          0.0000          0.0000
  10.9400          2.1340          2.1340          2.1340          0.0000          0.0000          0.0000
  10.9600          2.1385          2.1385          2.1385          0.0000          0.0000          0.0000
  10.9800          2.1424          2.1424          2.1424          0.0000          0.0000          0.0000
  11.0000          2.1456          2.1456          2.1456          0.0000          0.0000          0.0000
  11.0200          2.1482          2.1482          2.1482          0.0000          0.0000          0.0000
  11.0400          2.1500          2.1500          2.1500          0.0000          0.0000          0.0000
  11.0600          2.1511          2.1511          2.1511          0.0000          0.0000          0.0000
  11.0800          2.1515          2.1515          2.1515          0.0000          0.0000          0.0000
  11.1000          2.1512          2.1512          2.1512          0.0000          0.0000          0.0000
  11.1200          2.1502          2.1502          2.1502          0.0000          0.0000          0.0000
  11.1400          2.1485          2.1485          2.1485          0.0000          0.0000          0.0000
  11.1600          2.1463          2.1463          2.1463          0.0000          0.0000          0.0000
  11.1800          2.1437          2.1437          2.1437          0.0000          0.0000          0.0000
  11.2000          2.1407          2.1407          2.1407          0.0000          0.0000          0.0000
  11.2200          2.1374          2.1374          2.1374          0.0000          0.0000          0.0000
  11.2400          2.1341          2.1341          2.1341          0.0000          0.0000          0.0000
  11.2600          2.1309          2.1309          2.1309          0.0000          0.0000          0.0000
  11.2800          2.1279          2.1279          2.1279          0.0000          0.0000          0.0000
  11.3000          2.1253          2.1253          2.1253          0.0000          0.0000          0.0000
  11.3200          2.1231          2.1231          2.1231          0.0000          0.0000          0.0000
  11.3400          2.1215          2.1215          2.1215          0.0000          0.0000          0.0000
  11.3600          2.1204          2.1204          2.1204          0.0000          0.0000          0.0000
  11.3800          2.1199          2.1199          2.1199          0.0000          0.0000          0.0000
  11.4000          2.1200          2.1200          2.1200          0.0000          0.0000          0.0000
  11.4200          2.1206          2.1206          2.1206          0.0000          0.0000          0.0000
  11.4400          2.1215          2.1215          2.1215          0.0000          0.0000          0.0000
  11.4600          2.1226          2.1226          2.1226          0.0000          0.0000          0.0000
  11.4800          2.1240          2.1240          2.1240          0.0000          0.0000          0.0000
  11.5000          2.1253          2.1253          2.1253          0.0000          0.0000          0.0000
  11.5200          2.1266          2.1266          2.1266          0.0000          0.0000          0.0000
  11.5400          2.1278          2.1278          2.1278          0.0000          0.0000          0.0000
  11.5600          2.1287          2.1287          2.1287          0.0000          0.0000          0.0000
  11.5800          2.1295          2.1295          2.1295          0.0000          0.0000          0.0000
  11.6000          2.1301          2.1301          2.1301          0.0000          0.0000          0.0000
  11.6200          2.1306          2.1306          2.1306          0.0000          0.0000          0.0000
  11.6400          2.1309          2.1309          2.1309          0.0000          0.0000          0.0000
  11.6600          2.1311          2.1311          2.1311          0.0000          0.0000          0.0000
  11.6800          2.1312          2.1312          2.1312          0.0000          0.0000          0.0000
  11.7000          2.1312          2.1312          2.1312          0.0000          0.0000          0.0000
  11.7200          2.1311          2.1311          2.1311          0.0000          0.0000          0.0000
  11.7400          2.1307          2.1307          2.1307          0.0000          0.0000          0.0000
  11.7600          2.1300          2.1300          2.1300          0.0000          0.0000          0.0000
  11.7800          2.1288          2.1288          2.1288          0.0000          0.0000          0.0000
  11.8000          2.1271          2.1271          2.1271          0.0000          0.0000          0.0000
  11.8200          2.1247          2.1247          2.1247          0.0000          0.0000          0.0000
  11.8400          2.1214          2.1214          2.1214          0.0000          0.0000          0.0000
  11.8600          2.1172          2.1172          2.1172          0.0000          0.0000          0.0000
  11.8800          2.1120          2.1120          2.1120          0.0000          0.0000          0.0000
  11.9000          2.1059          2.1059          2.1059          0.0000          0.0000          0.0000
  11.9200          2.0987          2.0987          2.0987          0.0000          0.0000          0.0000
  11.9400          2.0907          2.0907          2.0907          0.0000          0.0000          0.0000
  11.9600          2.0819          2.0819          2.0819          0.0000          0.0000          0.0000
  11.9800          2.0724          2.0724          2.0724          0.0000          0.0000          0.0000
  12.0000          2.0624          2.0624          2.0624          0.0000          0.0000          0.0000
  12.0200          2.0523          2.0523          2.0523          0.0000          0.0000          0.0000
  12.0400          2.0420          2.0420          2.0420          0.0000          0.0000          0.0000
  12.0600          2.0319          2.0319          2.0319          0.0000          0.0000          0.0000
  12.0800          2.0221          2.0221          2.0221          0.0000          0.0000          0.0000
  12.1000          2.0128          2.0128          2.0128          0.0000          0.0000          0.0000
  12.1200          2.0040          2.0040          2.0040          0.0000          0.0000          0.0000
  12.1400          1.9959          1.9959          1.9959          0.0000          0.0000          0.0000
  12.1600          1.9885          1.9885          1.9885          0.0000          0.0000          0.0000
  12.1800          1.9818          1.9818          1.9818          0.0000          0.0000          0.0000
  12.2000          1.9757          1.9757          1.9757          0.0000          0.0000          0.0000
  12.2200          1.9702          1.9702          1.9702          0.0000          0.0000          0.0000
  12.2400          1.9651          1.9651          1.9651          0.0000          0.0000          0.0000
  12.2600          1.9604          1.9604          1.9604          0.0000          0.0000          0.0000
  12.2800          1.9559          1.9559          1.9559          0.0000          0.0000          0.0000
  12.3000          1.9515          1.9515          1.9515          0.0000          0.0000          0.0000
  12.3200          1.9470          1.9470          1.9470          0.0000          0.0000          0.0000
  12.3400          1.9426          1.9426          1.9426          0.0000          0.0000          0.0000
  12.3600          1.9380          1.9380          1.9380          0.0000          0.0000          0.0000
  12.3800          1.9333          1.9333          1.9333          0.0000          0.0000          0.0000
  12.4000          1.9286          1.9286          1.9286          0.0000          0.0000          0.0000
  12.4200          1.9238          1.9238          1.9238          0.0000          0.0000          0.0000
  12.4400          1.9193          1.9193          1.9193          0.0000          0.0000          0.0000
  12.4600          1.9149          1.9149          1.9149          0.0000          0.0000          0.0000
  12.4800          1.9110          1.9110          1.9110          0.0000          0.0000          0.0000
  12.5000          1.9076          1.9076          1.9076          0.0000          0.0000          0.0000
  12.5200          1.9048          1.9048          1.9048          0.0000          0.0000          0.0000
  12.5400          1.9028          1.9028          1.9028          0.0000          0.0000          0.0000
  12.5600          1.9015          1.9015          1.9015          0.0000          0.0000          0.0000
  12.5800          1.9011          1.9011          1.9011          0.0000          0.0000          0.0000
  12.6000          1.9014          1.9014          1.9014          0.0000          0.0000          0.0000
  12.6200          1.9025          1.9025          1.9025          0.0000          0.0000          0.0000
  12.6400          1.9041          1.9041          1.9041          0.0000          0.0000          0.0000
  12.6600          1.9062          1.9062          1.9062          0.0000          0.0000          0.0000
  12.6800          1.9085          1.9085          1.9085          0.0000          0.0000          0.0000
  12.7000          1.9109          1.9109          1.9109          0.0000          0.0000          0.0000
  12.7200          1.9132          1.9132          1.9132          0.0000          0.0000          0.0000
  12.7400          1.9152          1.9152          1.9152          0.0000          0.0000          0.0000
  12.7600          1.9167          1.9167          1.9167          0.0000          0.0000          0.0000
  12.7800          1.9175          1.9175          1.9175          0.0000          0.0000          0.0000
  12.8000          1.9176          1.9176          1.9176          0.0000          0.0000          0.0000
  12.8200          1.9168          1.9168          1.9168          0.0000          0.0000          0.0000
  12.8400          1.9150          1.9150          1.9150          0.0000          0.0000          0.0000
  12.8600          1.9122          1.9122          1.9122          0.0000          0.0000          0.0000
  12.8800          1.9082          1.9082          1.9082          0.0000          0.0000          0.0000
  12.9000          1.9032          1.9032          1.9032          0.0000          0.0000          0.0000
  12.9200          1.8969          1.8969          1.8969          0.0000          0.0000          0.0000
  12.9400          1.8894          1.8894          1.8894          0.0000          0.0000          0.0000
  12.9600          1.8807          1.8807          1.8807          0.0000          0.0000          0.0000
  12.9800          1.8706          1.8706          1.8706          0.0000          0.0000          0.0000
  13.0000          1.8592          1.8592          1.8592          0.0000          0.0000          0.0000
  13.0200          1.8464          1.8464          1.8464          0.0000          0.0000          0.0000
  13.0400          1.8324          1.8324          1.8324          0.0000          0.0000          0.0000
  13.0600          1.8170          1.8170          1.8170          0.0000          0.0000          0.0000
  13.0800          1.8004          1.8004          1.8004          0.0000          0.0000          0.0000
  13.1000          1.7828          1.7828          1.7828          0.0000          0.0000          0.0000
  13.1200          1.7642          1.7642          1.7642          0.0000          0.0000          0.0000
  13.1400          1.7450          1.7450          1.7450          0.0000          0.0000          0.0000
  13.1600          1.7254          1.7254          1.7254          0.0000          0.0000          0.0000
  13.1800          1.7057          1.7057          1.7057          0.0000          0.0000          0.0000
  13.2000          1.6863          1.6863          1.6863          0.0000          0.0000          0.0000
  13.2200          1.6675          1.6675          1.6675          0.0000          0.0000          0.0000
  13.2400          1.6497          1.6497          1.6497          0.0000          0.0000          0.0000
  13.2600          1.6332          1.6332          1.6332          0.0000          0.0000          0.0000
  13.2800          1.6183          1.6183          1.6183          0.0000          0.0000          0.0000
  13.3000          1.6053          1.6053          1.6053          0.0000          0.0000          0.0000
  13.3200          1.5943          1.5943          1.5943          0.0000          0.0000          0.0000
  13.3400          1.5853          1.5853          1.5853          0.0000          0.0000          0.0000
  13.3600          1.5784          1.5784          1.5784          0.0000          0.0000          0.0000
  13.3800          1.5736          1.5736          1.5736          0.0000          0.0000          0.0000
  13.4000          1.5705          1.5705          1.5705          0.0000          0.0000          0.0000
  13.4200          1.5690          1.5690          1.5690          0.0000          0.0000          0.0000
  13.4400          1.5687          1.5687          1.5687          0.0000          0.0000          0.0000
  13.4600          1.5693          1.5693          1.5693          0.0000          0.0000          0.0000
  13.4800          1.5704          1.5704          1.5704          0.0000          0.0000          0.0000
  13.5000          1.5715          1.5715          1.5715          0.0000          0.0000          0.0000
  13.5200          1.5725          1.5725          1.5725          0.0000          0.0000          0.0000
  13.5400          1.5727          1.5727          1.5727          0.0000          0.0000          0.0000
  13.5600          1.5721          1.5721          1.5721          0.0000          0.0000          0.0000
  13.5800          1.5703          1.5703          1.5703          0.0000          0.0000          0.0000
  13.6000          1.5672          1.5672          1.5672          0.0000          0.0000          0.0000
  13.6200          1.5626          1.5626          1.5626          0.0000          0.0000          0.0000
  13.6400          1.5567          1.5567          1.5567          0.0000          0.0000          0.0000
  13.6600          1.5493          1.5493          1.5493          0.0000          0.0000          0.0000
  13.6800          1.5407          1.5407          1.5407          0.0000          0.0000          0.0000
  13.7000          1.5311          1.5311          1.5311          0.0000          0.0000          0.0000
  13.7200          1.5206          1.5206          1.5206          0.0000          0.0000          0.0000
  13.7400          1.5096          1.5096          1.5096          0.0000          0.0000          0.0000
  13.7600          1.4982          1.4982          1.4982          0.0000          0.0000          0.0000
  13.7800          1.4867          1.4867          1.4867          0.0000          0.0000          0.0000
  13.8000          1.4755          1.4755          1.4755          0.0000          0.0000          0.0000
  13.8200          1.4648          1.4648          1.4648          0.0000          0.0000          0.0000
  13.8400          1.4546          1.4546          1.4546          0.0000          0.0000          0.0000
  13.8600          1.4454          1.4454          1.4454          0.0000          0.0000          0.0000
  13.8800          1.4371          1.4371          1.4371          0.0000          0.0000          0.0000
  13.9000          1.4300          1.4300          1.4300          0.0000          0.0000          0.0000
  13.9200          1.4239          1.4239          1.4239          0.0000          0.0000          0.0000
  13.9400          1.4191          1.4191          1.4191          0.0000          0.0000          0.0000
  13.9600          1.4155          1.4155          1.4155          0.0000          0.0000          0.0000
  13.9800          1.4129          1.4129          1.4129          0.0000          0.0000          0.0000
  14.0000          1.4114          1.4114          1.4114          0.0000          0.0000          0.0000
  14.0200          1.4107          1.4107          1.4107          0.0000          0.0000          0.0000
  14.0400          1.4107          1.4107          1.4107          0.0000          0.0000          0.0000
  14.0600          1.4113          1.4113          1.4113          0.0000          0.0000          0.0000
  14.0800          1.4123          1.4123          1.4123          0.0000          0.0000          0.0000
  14.1000          1.4134          1.4134          1.4134          0.0000          0.0000          0.0000
  14.1200          1.4146          1.4146          1.4146          0.0000          0.0000          0.0000
  14.1400          1.4155          1.4155          1.4155          0.0000          0.0000          0.0000
  14.1600          1.4162          1.4162          1.4162          0.0000          0.0000          0.0000
  14.1800          1.4165          1.4165          1.4165          0.0000          0.0000          0.0000
  14.2000          1.4164          1.4164          1.4164          0.0000          0.0000          0.0000
  14.2200          1.4158          1.4158          1.4158          0.0000          0.0000          0.0000
  14.2400          1.4149          1.4149          1.4149          0.0000          0.0000          0.0000
  14.2600          1.4138          1.4138          1.4138          0.0000          0.0000          0.0000
  14.2800          1.4125          1.4125          1.4125          0.0000          0.0000          0.0000
  14.3000          1.4111          1.4111          1.4111          0.0000          0.0000          0.0000
  14.3200          1.4100          1.4100          1.4100          0.0000          0.0000          0.0000
  14.3400          1.4090          1.4090          1.4090          0.0000          0.0000          0.0000
  14.3600          1.4084          1.4084          1.4084          0.0000          0.0000          0.0000
  14.3800          1.4082          1.4082          1.4082          0.0000          0.0000          0.0000
  14.4000          1.4083          1.4083          1.4083          0.0000          0.0000          0.0000
  14.4200          1.4088          1.4088          1.4088          0.0000          0.0000          0.0000
  14.4400          1.4096          1.4096          1.4096          0.0000          0.0000          0.0000
  14.4600          1.4106          1.4106          1.4106          0.0000          0.0000          0.0000
  14.4800          1.4115          1.4115          1.4115          0.0000          0.0000          0.0000
  14.5000          1.4123          1.4123          1.4123          0.0000          0.0000          0.0000
  14.5200          1.4129          1.4129          1.4129          0.0000          0.0000          0.0000
  14.5400          1.4130          1.4130          1.4130          0.0000          0.0000          0.0000
  14.5600          1.4127          1.4127          1.4127          0.0000          0.0000          0.0000
  14.5800          1.4118          1.4118          1.4118          0.0000          0.0000          0.0000
  14.6000          1.4102          1.4102          1.4102          0.0000          0.0000          0.0000
  14.6200          1.4081          1.4081          1.4081          0.0000          0.0000          0.0000
  14.6400          1.4053          1.4053          1.4053          0.0000          0.0000          0.0000
  14.6600          1.4021          1.4021          1.4021          0.0000          0.0000          0.0000
  14.6800          1.3984          1.3984          1.3984          0.0000          0.0000          0.0000
  14.7000          1.3943          1.3943          1.3943          0.0000          0.0000          0.0000
  14.7200          1.3899          1.3899          1.3899          0.0000          0.0000          0.0000
  14.7400          1.3852          1.3852          1.3852          0.0000          0.0000          0.0000
  14.7600          1.3804          1.3804          1.3804          0.0000          0.0000          0.0000
  14.7800          1.3755          1.3755          1.3755          0.0000          0.0000          0.0000
  14.8000          1.3705          1.3705          1.3705          0.0000          0.0000          0.0000
  14.8200          1.3656          1.3656          1.3656          0.0000          0.0000          0.0000
  14.8400          1.3607          1.3607          1.3607          0.0000          0.0000          0.0000
  14.8600          1.3560          1.3560          1.3560          0.0000          0.0000          0.0000
  14.8800          1.3514          1.3514          1.3514          0.0000          0.0000          0.0000
  14.9000          1.3471          1.3471          1.3471          0.0000          0.0000          0.0000
  14.9200          1.3430          1.3430          1.3430          0.0000          0.0000          0.0000
  14.9400          1.3393          1.3393          1.3393          0.0000          0.0000          0.0000
  14.9600          1.3359          1.3359          1.3359          0.0000          0.0000          0.0000
  14.9800          1.3329          1.3329          1.3329          0.0000          0.0000          0.0000
  15.0000          1.3302          1.3302          1.3302          0.0000          0.0000          0.0000
  15.0200          1.3279          1.3279          1.3279          0.0000          0.0000          0.0000
  15.0400          1.3259          1.3259          1.3259          0.0000          0.0000          0.0000
  15.0600          1.3241          1.3241          1.3241          0.0000          0.0000          0.0000
  15.0800          1.3224          1.3224          1.3224          0.0000          0.0000          0.0000
  15.1000          1.3207          1.3207          1.3207          0.0000          0.0000          0.0000
  15.1200          1.3190          1.3190          1.3190          0.0000          0.0000          0.0000
  15.1400          1.3170          1.3170          1.3170          0.0000          0.0000          0.0000
  15.1600          1.3147          1.3147          1.3147          0.0000          0.0000          0.0000
  15.1800          1.3120          1.3120          1.3120          0.0000          0.0000          0.0000
  15.2000          1.3088          1.3088          1.3088          0.0000          0.0000          0.0000
  15.2200          1.3050          1.3050          1.3050          0.0000          0.0000          0.0000
  15.2400          1.3005          1.3005          1.3005          0.0000          0.0000          0.0000
  15.2600          1.2954          1.2954          1.2954          0.0000          0.0000          0.0000
  15.2800          1.2896          1.2896          1.2896          0.0000          0.0000          0.0000
  15.3000          1.2832          1.2832          1.2832          0.0000          0.0000          0.0000
  15.3200          1.2763          1.2763          1.2763          0.0000          0.0000          0.0000
  15.3400          1.2689          1.2689          1.2689          0.0000          0.0000          0.0000
  15.3600          1.2613          1.2613          1.2613          0.0000          0.0000          0.0000
  15.3800          1.2535          1.2535          1.2535          0.0000          0.0000          0.0000
  15.4000          1.2457          1.2457          1.2457          0.0000          0.0000          0.0000
  15.4200          1.2381          1.2381          1.2381          0.0000          0.0000          0.0000
  15.4400          1.2308          1.2308          1.2308          0.0000          0.0000          0.0000
  15.4600          1.2239          1.2239          1.2239          0.0000          0.0000          0.0000
  15.4800          1.2176          1.2176          1.2176          0.0000          0.0000          0.0000
  15.5000          1.2118          1.2118          1.2118          0.0000          0.0000          0.0000
  15.5200          1.2067          1.2067          1.2067          0.0000          0.0000          0.0000
  15.5400          1.2022          1.2022          1.2022          0.0000          0.0000          0.0000
  15.5600          1.1982          1.1982          1.1982          0.0000          0.0000          0.0000
  15.5800          1.1947          1.1947          1.1947          0.0000          0.0000          0.0000
  15.6000          1.1915          1.1915          1.1915          0.0000          0.0000          0.0000
  15.6200          1.1885          1.1885          1.1885          0.0000          0.0000          0.0000
  15.6400          1.1854          1.1854          1.1854          0.0000          0.0000          0.0000
  15.6600          1.1821          1.1821          1.1821          0.0000          0.0000          0.0000
  15.6800          1.1785          1.1785          1.1785          0.0000          0.0000          0.0000
  15.7000          1.1743          1.1743          1.1743          0.0000          0.0000          0.0000
  15.7200          1.1696          1.1696          1.1696          0.0000          0.0000          0.0000
  15.7400          1.1643          1.1643          1.1643          0.0000          0.0000          0.0000
  15.7600          1.1583          1.1583          1.1583          0.0000          0.0000          0.0000
  15.7800          1.1517          1.1517          1.1517          0.0000          0.0000          0.0000
  15.8000          1.1446          1.1446          1.1446          0.0000          0.0000          0.0000
  15.8200          1.1372          1.1372          1.1372          0.0000          0.0000          0.0000
  15.8400          1.1295          1.1295          1.1295          0.0000          0.0000          0.0000
  15.8600          1.1219          1.1219          1.1219          0.0000          0.0000          0.0000
  15.8800          1.1144          1.1144          1.1144          0.0000          0.0000          0.0000
  15.9000          1.1073          1.1073          1.1073          0.0000          0.0000          0.0000
  15.9200          1.1009          1.1009          1.1009          0.0000          0.0000          0.0000
  15.9400          1.0951          1.0951          1.0951          0.0000          0.0000          0.0000
  15.9600          1.0903          1.0903          1.0903          0.0000          0.0000          0.0000
  15.9800          1.0864          1.0864          1.0864          0.0000          0.0000          0.0000
  16.0000          1.0835          1.0835          1.0835          0.0000          0.0000          0.0000
  16.0200          1.0816          1.0816          1.0816          0.0000          0.0000          0.0000
  16.0400          1.0807          1.0807          1.0807          0.0000          0.0000          0.0000
  16.0600          1.0807          1.0807          1.0807          0.0000          0.0000          0.0000
  16.0800          1.0815          1.0815          1.0815          0.0000          0.0000          0.0000
  16.1000          1.0829          1.0829          1.0829          0.0000          0.0000          0.0000
  16.1200          1.0849          1.0849          1.0849          0.0000          0.0000          0.0000
  16.1400          1.0872          1.0872          1.0872          0.0000          0.0000          0.0000
  16.1600          1.0898          1.0898          1.0898          0.0000          0.0000          0.0000
  16.1800          1.0925          1.0925          1.0925          0.0000          0.0000          0.0000
  16.2000          1.0951          1.0951          1.0951          0.0000          0.0000          0.0000
  16.2200          1.0975          1.0975          1.0975          0.0000          0.0000          0.0000
  16.2400          1.0996          1.0996          1.0996          0.0000          0.0000          0.0000
  16.2600          1.1013          1.1013          1.1013          0.0000          0.0000          0.0000
  16.2800          1.1024          1.1024          1.1024          0.0000          0.0000          0.0000
  16.3000          1.1030          1.1030          1.1030          0.0000          0.0000          0.0000
  16.3200          1.1028          1.1028          1.1028          0.0000          0.0000          0.0000
  16.3400          1.1020          1.1020          1.1020          0.0000          0.0000          0.0000
  16.3600          1.1004          1.1004          1.1004          0.0000          0.0000          0.0000
  16.3800          1.0981          1.0981          1.0981          0.0000          0.0000          0.0000
  16.4000          1.0951          1.0951          1.0951          0.0000          0.0000          0.0000
  16.4200          1.0914          1.0914          1.0914          0.0000          0.0000          0.0000
  16.4400          1.0870          1.0870          1.0870          0.0000          0.0000          0.0000
  16.4600          1.0821          1.0821          1.0821          0.0000          0.0000          0.0000
  16.4800          1.0768          1.0768          1.0768          0.0000          0.0000          0.0000
  16.5000          1.0710          1.0710          1.0710          0.0000          0.0000          0.0000
  16.5200          1.0651          1.0651          1.0651          0.0000          0.0000          0.0000
  16.5400          1.0591          1.0591          1.0591          0.0000          0.0000          0.0000
  16.5600          1.0531          1.0531          1.0531          0.0000          0.0000          0.0000
  16.5800          1.0472          1.0472          1.0472          0.0000          0.0000          0.0000
  16.6000          1.0416          1.0416          1.0416          0.0000          0.0000          0.0000
  16.6200          1.0364          1.0364          1.0364          0.0000          0.0000          0.0000
  16.6400          1.0316          1.0316          1.0316          0.0000          0.0000          0.0000
  16.6600          1.0274          1.0274          1.0274          0.0000          0.0000          0.0000
  16.6800          1.0238          1.0238          1.0238          0.0000          0.0000          0.0000
  16.7000          1.0209          1.0209          1.0209          0.0000          0.0000          0.0000
  16.7200          1.0186          1.0186          1.0186          0.0000          0.0000          0.0000
  16.7400          1.0170          1.0170          1.0170          0.0000          0.0000          0.0000
  16.7600          1.0161          1.0161          1.0161          0.0000          0.0000          0.0000
  16.7800          1.0157          1.0157          1.0157          0.0000          0.0000          0.0000
  16.8000          1.0160          1.0160          1.0160          0.0000          0.0000          0.0000
  16.8200          1.0167          1.0167          1.0167          0.0000          0.0000          0.0000
  16.8400          1.0179          1.0179          1.0179          0.0000          0.0000          0.0000
  16.8600          1.0195          1.0195          1.0195          0.0000          0.0000          0.0000
  16.8800          1.0212          1.0212          1.0212          0.0000          0.0000          0.0000
  16.9000          1.0231          1.0231          1.0231          0.0000          0.0000          0.0000
  16.9200          1.0250          1.0250          1.0250          0.0000          0.0000          0.0000
  16.9400          1.0267          1.0267          1.0267          0.0000          0.0000          0.0000
  16.9600          1.0283          1.0283          1.0283          0.0000          0.0000          0.0000
  16.9800          1.0294          1.0294          1.0294          0.0000          0.0000          0.0000
  17.0000          1.0302          1.0302          1.0302          0.0000          0.0000          0.0000
  17.0200          1.0304          1.0304          1.0304          0.0000          0.0000          0.0000
  17.0400          1.0301          1.0301          1.0301          0.0000          0.0000          0.0000
  17.0600          1.0292          1.0292          1.0292          0.0000          0.0000          0.0000
  17.0800          1.0278          1.0278          1.0278          0.0000          0.0000          0.0000
  17.1000          1.0259          1.0259          1.0259          0.0000          0.0000          0.0000
  17.1200          1.0235          1.0235          1.0235          0.0000          0.0000          0.0000
  17.1400          1.0209          1.0209          1.0209          0.0000          0.0000          0.0000
  17.1600          1.0179          1.0179          1.0179          0.0000          0.0000          0.0000
  17.1800          1.0149          1.0149          1.0149          0.0000          0.0000          0.0000
  17.2000          1.0119          1.0119          1.0119          0.0000          0.0000          0.0000
  17.2200          1.0091          1.0091          1.0091          0.0000          0.0000          0.0000
  17.2400          1.0065          1.0065          1.0065          0.0000          0.0000          0.0000
  17.2600          1.0042          1.0042          1.0042          0.0000          0.0000          0.0000
  17.2800          1.0023          1.0023          1.0023          0.0000          0.0000          0.0000
  17.3000          1.0008          1.0008          1.0008          0.0000          0.0000          0.0000
  17.3200          0.9998          0.9998          0.9998          0.0000          0.0000          0.0000
  17.3400          0.9993          0.9993          0.9993          0.0000          0.0000          0.0000
  17.3600          0.9992          0.9992          0.9992          0.0000          0.0000          0.0000
  17.3800          0.9994          0.9994          0.9994          0.0000          0.0000          0.0000
  17.4000          0.9999          0.9999          0.9999          0.0000          0.0000          0.0000
  17.4200          1.0007          1.0007          1.0007          0.0000          0.0000          0.0000
  17.4400          1.0017          1.0017          1.0017          0.0000          0.0000          0.0000
  17.4600          1.0028          1.0028          1.0028          0.0000          0.0000          0.0000
  17.4800          1.0039          1.0039          1.0039          0.0000          0.0000          0.0000
  17.5000          1.0051          1.0051          1.0051          0.0000          0.0000          0.0000
  17.5200          1.0061          1.0061          1.0061          0.0000          0.0000          0.0000
  17.5400          1.0071          1.0071          1.0071          0.0000          0.0000          0.0000
  17.5600          1.0079          1.0079          1.0079          0.0000          0.0000          0.0000
  17.5800          1.0086          1.0086          1.0086          0.0000          0.0000          0.0000
  17.6000          1.0091          1.0091          1.0091          0.0000          0.0000          0.0000
  17.6200          1.0095          1.0095          1.0095          0.0000          0.0000          0.0000
  17.6400          1.0097          1.0097          1.0097          0.0000          0.0000          0.0000
  17.6600          1.0098          1.0098          1.0098          0.0000          0.0000          0.0000
  17.6800          1.0099          1.0099          1.0099          0.0000          0.0000          0.0000
  17.7000          1.0098          1.0098          1.0098          0.0000          0.0000          0.0000
  17.7200          1.0097          1.0097          1.0097          0.0000          0.0000          0.0000
  17.7400          1.0097          1.0097          1.0097          0.0000          0.0000          0.0000
  17.7600          1.0097          1.0097          1.0097          0.0000          0.0000          0.0000
  17.7800          1.0098          1.0098          1.0098          0.0000          0.0000          0.0000
  17.8000          1.0101          1.0101          1.0101          0.0000          0.0000          0.0000
  17.8200          1.0105          1.0105          1.0105          0.0000          0.0000          0.0000
  17.8400          1.0113          1.0113          1.0113          0.0000          0.0000          0.0000
  17.8600          1.0123          1.0123          1.0123          0.0000          0.0000          0.0000
  17.8800          1.0138          1.0138          1.0138          0.0000          0.0000          0.0000
  17.9000          1.0156          1.0156          1.0156          0.0000          0.0000          0.0000
  17.9200          1.0178          1.0178          1.0178          0.0000          0.0000          0.0000
  17.9400          1.0205          1.0205          1.0205          0.0000          0.0000          0.0000
  17.9600          1.0236          1.0236          1.0236          0.0000          0.0000          0.0000
  17.9800          1.0271          1.0271          1.0271          0.0000          0.0000          0.0000
  18.0000          1.0309          1.0309          1.0309          0.0000          0.0000          0.0000
  18.0200          1.0351          1.0351          1.0351          0.0000          0.0000          0.0000
  18.0400          1.0395          1.0395          1.0395          0.0000          0.0000          0.0000
  18.0600          1.0440          1.0440          1.0440          0.0000          0.0000          0.0000
  18.0800          1.0486          1.0486          1.0486          0.0000          0.0000          0.0000
  18.1000          1.0532          1.0532          1.0532          0.0000          0.0000          0.0000
  18.1200          1.0576          1.0576          1.0576          0.0000          0.0000          0.0000
  18.1400          1.0618          1.0618          1.0618          0.0000          0.0000          0.0000
  18.1600          1.0657          1.0657          1.0657          0.0000          0.0000          0.0000
  18.1800          1.0691          1.0691          1.0691          0.0000          0.0000          0.0000
  18.2000          1.0722          1.0722          1.0722          0.0000          0.0000          0.0000
  18.2200          1.0747          1.0747          1.0747          0.0000          0.0000          0.0000
  18.2400          1.0767          1.0767          1.0767          0.0000          0.0000          0.0000
  18.2600          1.0781          1.0781          1.0781          0.0000          0.0000          0.0000
  18.2800          1.0788          1.0788          1.0788          0.0000          0.0000          0.0000
  18.3000          1.0789          1.0789          1.0789          0.0000          0.0000          0.0000
  18.3200          1.0782          1.0782          1.0782          0.0000          0.0000          0.0000
  18.3400          1.0769          1.0769          1.0769          0.0000          0.0000          0.0000
  18.3600          1.0748          1.0748          1.0748          0.0000          0.0000          0.0000
  18.3800          1.0721          1.0721          1.0721          0.0000          0.0000          0.0000
  18.4000          1.0687          1.0687          1.0687          0.0000          0.0000          0.0000
  18.4200          1.0646          1.0646          1.0646          0.0000          0.0000          0.0000
  18.4400          1.0601          1.0601          1.0601          0.0000          0.0000          0.0000
  18.4600          1.0550          1.0550          1.0550          0.0000          0.0000          0.0000
  18.4800          1.0497          1.0497          1.0497          0.0000          0.0000          0.0000
  18.5000          1.0441          1.0441          1.0441          0.0000          0.0000          0.0000
  18.5200          1.0385          1.0385          1.0385          0.0000          0.0000          0.0000
  18.5400          1.0329          1.0329          1.0329          0.0000          0.0000          0.0000
  18.5600          1.0276          1.0276          1.0276          0.0000          0.0000          0.0000
  18.5800          1.0227          1.0227          1.0227          0.0000          0.0000          0.0000
  18.6000          1.0183          1.0183          1.0183          0.0000          0.0000          0.0000
  18.6200          1.0145          1.0145          1.0145          0.0000          0.0000          0.0000
  18.6400          1.0115          1.0115          1.0115          0.0000          0.0000          0.0000
  18.6600          1.0094          1.0094          1.0094          0.0000          0.0000          0.0000
  18.6800          1.0082          1.0082          1.0082          0.0000          0.0000          0.0000
  18.7000          1.0078          1.0078          1.0078          0.0000          0.0000          0.0000
  18.7200          1.0084          1.0084          1.0084          0.0000          0.0000          0.0000
  18.7400          1.0098          1.0098          1.0098          0.0000          0.0000          0.0000
  18.7600          1.0119          1.0119          1.0119          0.0000          0.0000          0.0000
  18.7800          1.0147          1.0147          1.0147          0.0000          0.0000          0.0000
  18.8000          1.0180          1.0180          1.0180          0.0000          0.0000          0.0000
  18.8200          1.0216          1.0216          1.0216          0.0000          0.0000          0.0000
  18.8400          1.0255          1.0255          1.0255          0.0000          0.0000          0.0000
  18.8600          1.0293          1.0293          1.0293          0.0000          0.0000          0.0000
  18.8800          1.0329          1.0329          1.0329          0.0000          0.0000          0.0000
  18.9000          1.0362          1.0362          1.0362          0.0000          0.0000          0.0000
  18.9200          1.0390          1.0390          1.0390          0.0000          0.0000          0.0000
  18.9400          1.0412          1.0412          1.0412          0.0000          0.0000          0.0000
  18.9600          1.0426          1.0426          1.0426          0.0000          0.0000          0.0000
  18.9800          1.0433          1.0433          1.0433          0.0000          0.0000          0.0000
  19.0000          1.0430          1.0430          1.0430          0.0000          0.0000          0.0000
  19.0200          1.0420          1.0420          1.0420          0.0000          0.0000          0.0000
  19.0400          1.0400          1.0400          1.0400          0.0000          0.0000          0.0000
  19.0600          1.0372          1.0372          1.0372          0.0000          0.0000          0.0000
  19.0800          1.0336          1.0336          1.0336          0.0000          0.0000          0.0000
  19.1000          1.0293          1.0293          1.0293          0.0000          0.0000          0.0000
  19.1200          1.0242          1.0242          1.0242          0.0000          0.0000          0.0000
  19.1400          1.0185          1.0185          1.0185          0.0000          0.0000          0.0000
  19.1600          1.0122          1.0122          1.0122          0.0000          0.0000          0.0000
  19.1800          1.0053          1.0053          1.0053          0.0000          0.0000          0.0000
  19.2000          0.9979          0.9979          0.9979          0.0000          0.0000          0.0000
  19.2200          0.9900          0.9900          0.9900          0.0000          0.0000          0.0000
  19.2400          0.9816          0.9816          0.9816          0.0000          0.0000          0.0000
  19.2600          0.9729          0.9729          0.9729          0.0000          0.0000          0.0000
  19.2800          0.9637          0.9637          0.9637          0.0000          0.0000          0.0000
  19.3000          0.9543          0.9543          0.9543          0.0000          0.0000          0.0000
  19.3200          0.9447          0.9447          0.9447          0.0000          0.0000          0.0000
  19.3400          0.9350          0.9350          0.9350          0.0000          0.0000          0.0000
  19.3600          0.9253          0.9253          0.9253          0.0000          0.0000          0.0000
  19.3800          0.9158          0.9158          0.9158          0.0000          0.0000          0.0000
  19.4000          0.9065          0.9065          0.9065          0.0000          0.0000          0.0000
  19.4200          0.8977          0.8977          0.8977          0.0000          0.0000          0.0000
  19.4400          0.8894          0.8894          0.8894          0.0000          0.0000          0.0000
  19.4600          0.8817          0.8817          0.8817          0.0000          0.0000          0.0000
  19.4800          0.8747          0.8747          0.8747          0.0000          0.0000          0.0000
  19.5000          0.8684          0.8684          0.8684          0.0000          0.0000          0.0000
  19.5200          0.8629          0.8629          0.8629          0.0000          0.0000          0.0000
  19.5400          0.8581          0.8581          0.8581          0.0000          0.0000          0.0000
  19.5600          0.8538          0.8538          0.8538          0.0000          0.0000          0.0000
  19.5800          0.8500          0.8500          0.8500          0.0000          0.0000          0.0000
  19.6000          0.8464          0.8464          0.8464          0.0000          0.0000          0.0000
  19.6200          0.8430          0.8430          0.8430          0.0000          0.0000          0.0000
  19.6400          0.8394          0.8394          0.8394          0.0000          0.0000          0.0000
  19.6600          0.8355          0.8355          0.8355          0.0000          0.0000          0.0000
  19.6800          0.8311          0.8311          0.8311          0.0000          0.0000          0.0000
  19.7000          0.8260          0.8260          0.8260          0.0000          0.0000          0.0000
  19.7200          0.8200          0.8200          0.8200          0.0000          0.0000          0.0000
  19.7400          0.8131          0.8131          0.8131          0.0000          0.0000          0.0000
  19.7600          0.8052          0.8052          0.8052          0.0000          0.0000          0.0000
  19.7800          0.7960          0.7960          0.7960          0.0000          0.0000          0.0000
  19.8000          0.7856          0.7856          0.7856          0.0000          0.0000          0.0000
  19.8200          0.7738          0.7738          0.7738          0.0000          0.0000          0.0000
  19.8400          0.7603          0.7603          0.7603          0.0000          0.0000          0.0000
  19.8600          0.7449          0.7449          0.7449          0.0000          0.0000          0.0000
  19.8800          0.7272          0.7272          0.7272          0.0000          0.0000          0.0000
  19.9000          0.7065          0.7065          0.7065          0.0000          0.0000          0.0000
  19.9200          0.6820          0.6820          0.6820          0.0000          0.0000          0.0000
  19.9400          0.6526          0.6526          0.6526          0.0000          0.0000          0.0000
  19.9600          0.6173          0.6173          0.6173          0.0000          0.0000          0.0000
  19.9800          0.5751          0.5751          0.5751          0.0000          0.0000          0.0000
  20.0000          0.5266          0.5266          0.5266          0.0000          0.0000          0.0000
