### linear absorption coefficients(in units of 10^5 cm-1)
   0.0000          0.0000          0.0000          0.0000          0.0000          0.0000          0.0000
   0.0200          0.6001          0.6001          0.6001          0.0000          0.0000          0.0000
   0.0400          0.8364          0.8364          0.8364          0.0000          0.0000          0.0000
   0.0600          1.0170          1.0170          1.0170          0.0000          0.0000          0.0000
   0.0800          1.1751          1.1751          1.1751          0.0000          0.0000          0.0000
   0.1000          1.3241          1.3241          1.3241          0.0000          0.0000          0.0000
   0.1200          1.4710          1.4710          1.4710          0.0000          0.0000          0.0000
   0.1400          1.6191          1.6191          1.6191          0.0000          0.0000          0.0000
   0.1600          1.7701          1.7701          1.7701          0.0000          0.0000          0.0000
   0.1800          1.9241          1.9241          1.9241          0.0000          0.0000          0.0000
   0.2000          2.0806          2.0806          2.0806          0.0000          0.0000          0.0000
   0.2200          2.2383          2.2383          2.2383          0.0000          0.0000          0.0000
   0.2400          2.3960          2.3960          2.3960          0.0000          0.0000          0.0000
   0.2600          2.5520          2.5520          2.5520          0.0000          0.0000          0.0000
   0.2800          2.7048          2.7048          2.7048          0.0000          0.0000          0.0000
   0.3000          2.8529          2.8529          2.8529          0.0000          0.0000          0.0000
   0.3200          2.9951          2.9951          2.9951          0.0000          0.0000          0.0000
   0.3400          3.1303          3.1303          3.1303          0.0000          0.0000          0.0000
   0.3600          3.2577          3.2577          3.2577          0.0000          0.0000          0.0000
   0.3800          3.3767          3.3767          3.3767          0.0000          0.0000          0.0000
   0.4000          3.4871          3.4871          3.4871          0.0000          0.0000          0.0000
   0.4200          3.5889          3.5889          3.5889          0.0000          0.0000          0.0000
   0.4400          3.6825          3.6825          3.6825          0.0000          0.0000          0.0000
   0.4600          3.7684          3.7684          3.7684          0.0000          0.0000          0.0000
   0.4800          3.8473          3.8473          3.8473          0.0000          0.0000          0.0000
   0.5000          3.9200          3.9200          3.9200          0.0000          0.0000          0.0000
   0.5200          3.9875          3.9875          3.9875          0.0000          0.0000          0.0000
   0.5400          4.0509          4.0509          4.0509          0.0000          0.0000          0.0000
   0.5600          4.1111          4.1111          4.1111          0.0000          0.0000          0.0000
   0.5800          4.1690          4.1690          4.1690          0.0000          0.0000          0.0000
   0.6000          4.2255          4.2255          4.2255          0.0000          0.0000          0.0000
   0.6200          4.2815          4.2815          4.2815          0.0000          0.0000          0.0000
   0.6400          4.3376          4.3376          4.3376          0.0000          0.0000          0.0000
   0.6600          4.3942          4.3942          4.3942          0.0000          0.0000          0.0000
   0.6800          4.4519          4.4519          4.4519          0.0000          0.0000          0.0000
   0.7000          4.5107          4.5107          4.5107          0.0000          0.0000          0.0000
   0.7200          4.5709          4.5709          4.5709          0.0000          0.0000          0.0000
   0.7400          4.6323          4.6323          4.6323          0.0000          0.0000          0.0000
   0.7600          4.6946          4.6946          4.6946          0.0000          0.0000          0.0000
   0.7800          4.7576          4.7576          4.7576          0.0000          0.0000          0.0000
   0.8000          4.8207          4.8207          4.8207          0.0000          0.0000          0.0000
   0.8200          4.8833          4.8833          4.8833          0.0000          0.0000          0.0000
   0.8400          4.9448          4.9448          4.9448          0.0000          0.0000          0.0000
   0.8600          5.0044          5.0044          5.0044          0.0000          0.0000          0.0000
   0.8800          5.0614          5.0614          5.0614          0.0000          0.0000          0.0000
   0.9000          5.1150          5.1150          5.1150          0.0000          0.0000          0.0000
   0.9200          5.1647          5.1647          5.1647          0.0000          0.0000          0.0000
   0.9400          5.2099          5.2099          5.2099          0.0000          0.0000          0.0000
   0.9600          5.2500          5.2500          5.2500          0.0000          0.0000          0.0000
   0.9800          5.2849          5.2849          5.2849          0.0000          0.0000          0.0000
   1.0000          5.3143          5.3143          5.3143          0.0000          0.0000          0.0000
   1.0200          5.3382          5.3382          5.3382          0.0000          0.0000          0.0000
   1.0400          5.3567          5.3567          5.3567          0.0000          0.0000          0.0000
   1.0600          5.3703          5.3703          5.3703          0.0000          0.0000          0.0000
   1.0800          5.3791          5.3791          5.3791          0.0000          0.0000          0.0000
   1.1000          5.3837          5.3837          5.3837          0.0000          0.0000          0.0000
   1.1200          5.3845          5.3845          5.3845          0.0000          0.0000          0.0000
   1.1400          5.3821          5.3821          5.3821          0.0000          0.0000          0.0000
   1.1600          5.3769          5.3769          5.3769          0.0000          0.0000          0.0000
   1.1800          5.3694          5.3694          5.3694          0.0000          0.0000          0.0000
   1.2000          5.3599          5.3599          5.3599          0.0000          0.0000          0.0000
   1.2200          5.3486          5.3486          5.3486          0.0000          0.0000          0.0000
   1.2400          5.3360          5.3360          5.3360          0.0000          0.0000          0.0000
   1.2600          5.3220          5.3220          5.3220          0.0000          0.0000          0.0000
   1.2800          5.3068          5.3068          5.3068          0.0000          0.0000          0.0000
   1.3000          5.2904          5.2904          5.2904          0.0000          0.0000          0.0000
   1.3200          5.2728          5.2728          5.2728          0.0000          0.0000          0.0000
   1.3400          5.2540          5.2540          5.2540          0.0000          0.0000          0.0000
   1.3600          5.2340          5.2340          5.2340          0.0000          0.0000          0.0000
   1.3800          5.2126          5.2126          5.2126          0.0000          0.0000          0.0000
   1.4000          5.1899          5.1899          5.1899          0.0000          0.0000          0.0000
   1.4200          5.1658          5.1658          5.1658          0.0000          0.0000          0.0000
   1.4400          5.1404          5.1404          5.1404          0.0000          0.0000          0.0000
   1.4600          5.1136          5.1136          5.1136          0.0000          0.0000          0.0000
   1.4800          5.0856          5.0856          5.0856          0.0000          0.0000          0.0000
   1.5000          5.0565          5.0565          5.0565          0.0000          0.0000          0.0000
   1.5200          5.0265          5.0265          5.0265          0.0000          0.0000          0.0000
   1.5400          4.9959          4.9959          4.9959          0.0000          0.0000          0.0000
   1.5600          4.9651          4.9651          4.9651          0.0000          0.0000          0.0000
   1.5800          4.9344          4.9344          4.9344          0.0000          0.0000          0.0000
   1.6000          4.9042          4.9042          4.9042          0.0000          0.0000          0.0000
   1.6200          4.8751          4.8751          4.8751          0.0000          0.0000          0.0000
   1.6400          4.8473          4.8473          4.8473          0.0000          0.0000          0.0000
   1.6600          4.8212          4.8212          4.8212          0.0000          0.0000          0.0000
   1.6800          4.7972          4.7972          4.7972          0.0000          0.0000          0.0000
   1.7000          4.7754          4.7754          4.7754          0.0000          0.0000          0.0000
   1.7200          4.7558          4.7558          4.7558          0.0000          0.0000          0.0000
   1.7400          4.7385          4.7385          4.7385          0.0000          0.0000          0.0000
   1.7600          4.7231          4.7231          4.7231          0.0000          0.0000          0.0000
   1.7800          4.7093          4.7093          4.7093          0.0000          0.0000          0.0000
   1.8000          4.6966          4.6966          4.6966          0.0000          0.0000          0.0000
   1.8200          4.6845          4.6845          4.6845          0.0000          0.0000          0.0000
   1.8400          4.6722          4.6722          4.6722          0.0000          0.0000          0.0000
   1.8600          4.6592          4.6592          4.6592          0.0000          0.0000          0.0000
   1.8800          4.6449          4.6449          4.6449          0.0000          0.0000          0.0000
   1.9000          4.6287          4.6287          4.6287          0.0000          0.0000          0.0000
   1.9200          4.6103          4.6103          4.6103          0.0000          0.0000          0.0000
   1.9400          4.5895          4.5895          4.5895          0.0000          0.0000          0.0000
   1.9600          4.5662          4.5662          4.5662          0.0000          0.0000          0.0000
   1.9800          4.5408          4.5408          4.5408          0.0000          0.0000          0.0000
   2.0000          4.5138          4.5138          4.5138          0.0000          0.0000          0.0000
   2.0200          4.4860          4.4860          4.4860          0.0000          0.0000          0.0000
   2.0400          4.4584          4.4584          4.4584          0.0000          0.0000          0.0000
   2.0600          4.4324          4.4324          4.4324          0.0000          0.0000          0.0000
   2.0800          4.4093          4.4093          4.4093          0.0000          0.0000          0.0000
   2.1000          4.3905          4.3905          4.3905          0.0000          0.0000          0.0000
   2.1200          4.3775          4.3775          4.3775          0.0000          0.0000          0.0000
   2.1400          4.3716          4.3716          4.3716          0.0000          0.0000          0.0000
   2.1600          4.3739          4.3739          4.3739          0.0000          0.0000          0.0000
   2.1800          4.3853          4.3853          4.3853          0.0000          0.0000          0.0000
   2.2000          4.4062          4.4062          4.4062          0.0000          0.0000          0.0000
   2.2200          4.4372          4.4372          4.4372          0.0000          0.0000          0.0000
   2.2400          4.4780          4.4780          4.4780          0.0000          0.0000          0.0000
   2.2600          4.5285          4.5285          4.5285          0.0000          0.0000          0.0000
   2.2800          4.5883          4.5883          4.5883          0.0000          0.0000          0.0000
   2.3000          4.6567          4.6567          4.6567          0.0000          0.0000          0.0000
   2.3200          4.7330          4.7330          4.7330          0.0000          0.0000          0.0000
   2.3400          4.8166          4.8166          4.8166          0.0000          0.0000          0.0000
   2.3600          4.9068          4.9068          4.9068          0.0000          0.0000          0.0000
   2.3800          5.0031          5.0031          5.0031          0.0000          0.0000          0.0000
   2.4000          5.1049          5.1049          5.1049          0.0000          0.0000          0.0000
   2.4200          5.2120          5.2120          5.2120          0.0000          0.0000          0.0000
   2.4400          5.3242          5.3242          5.3242          0.0000          0.0000          0.0000
   2.4600          5.4413          5.4413          5.4413          0.0000          0.0000          0.0000
   2.4800          5.5634          5.5634          5.5634          0.0000          0.0000          0.0000
   2.5000          5.6907          5.6907          5.6907          0.0000          0.0000          0.0000
   2.5200          5.8232          5.8232          5.8232          0.0000          0.0000          0.0000
   2.5400          5.9611          5.9611          5.9611          0.0000          0.0000          0.0000
   2.5600          6.1045          6.1045          6.1045          0.0000          0.0000          0.0000
   2.5800          6.2536          6.2536          6.2536          0.0000          0.0000          0.0000
   2.6000          6.4082          6.4082          6.4082          0.0000          0.0000          0.0000
   2.6200          6.5685          6.5685          6.5685          0.0000          0.0000          0.0000
   2.6400          6.7343          6.7343          6.7343          0.0000          0.0000          0.0000
   2.6600          6.9055          6.9055          6.9055          0.0000          0.0000          0.0000
   2.6800          7.0818          7.0818          7.0818          0.0000          0.0000          0.0000
   2.7000          7.2631          7.2631          7.2631          0.0000          0.0000          0.0000
   2.7200          7.4490          7.4490          7.4490          0.0000          0.0000          0.0000
   2.7400          7.6392          7.6392          7.6392          0.0000          0.0000          0.0000
   2.7600          7.8334          7.8334          7.8334          0.0000          0.0000          0.0000
   2.7800          8.0310          8.0310          8.0310          0.0000          0.0000          0.0000
   2.8000          8.2315          8.2315          8.2315          0.0000          0.0000          0.0000
   2.8200          8.4342          8.4342          8.4342          0.0000          0.0000          0.0000
   2.8400          8.6384          8.6384          8.6384          0.0000          0.0000          0.0000
   2.8600          8.8431          8.8431          8.8431          0.0000          0.0000          0.0000
   2.8800          9.0472          9.0472          9.0472          0.0000          0.0000          0.0000
   2.9000          9.2495          9.2495          9.2495          0.0000          0.0000          0.0000
   2.9200          9.4490          9.4490          9.4490          0.0000          0.0000          0.0000
   2.9400          9.6442          9.6442          9.6442          0.0000          0.0000          0.0000
   2.9600          9.8340          9.8340          9.8340          0.0000          0.0000          0.0000
   2.9800         10.0174         10.0174         10.0174          0.0000          0.0000          0.0000
   3.0000         10.1935         10.1935         10.1935          0.0000          0.0000          0.0000
   3.0200         10.3616         10.3616         10.3616          0.0000          0.0000          0.0000
   3.0400         10.5214         10.5214         10.5214          0.0000          0.0000          0.0000
   3.0600         10.6729         10.6729         10.6729          0.0000          0.0000          0.0000
   3.0800         10.8166         10.8166         10.8166          0.0000          0.0000          0.0000
   3.1000         10.9532         10.9532         10.9532          0.0000          0.0000          0.0000
   3.1200         11.0836         11.0836         11.0836          0.0000          0.0000          0.0000
   3.1400         11.2091         11.2091         11.2091          0.0000          0.0000          0.0000
   3.1600         11.3309         11.3309         11.3309          0.0000          0.0000          0.0000
   3.1800         11.4504         11.4504         11.4504          0.0000          0.0000          0.0000
   3.2000         11.5687         11.5687         11.5687          0.0000          0.0000          0.0000
   3.2200         11.6868         11.6868         11.6868          0.0000          0.0000          0.0000
   3.2400         11.8052         11.8052         11.8052          0.0000          0.0000          0.0000
   3.2600         11.9243         11.9243         11.9243          0.0000          0.0000          0.0000
   3.2800         12.0438         12.0438         12.0438          0.0000          0.0000          0.0000
   3.3000         12.1633         12.1633         12.1633          0.0000          0.0000          0.0000
   3.3200         12.2820         12.2820         12.2820          0.0000          0.0000          0.0000
   3.3400         12.3989         12.3989         12.3989          0.0000          0.0000          0.0000
   3.3600         12.5129         12.5129         12.5129          0.0000          0.0000          0.0000
   3.3800         12.6229         12.6229         12.6229          0.0000          0.0000          0.0000
   3.4000         12.7278         12.7278         12.7278          0.0000          0.0000          0.0000
   3.4200         12.8269         12.8269         12.8269          0.0000          0.0000          0.0000
   3.4400         12.9195         12.9195         12.9195          0.0000          0.0000          0.0000
   3.4600         13.0052         13.0052         13.0052          0.0000          0.0000          0.0000
   3.4800         13.0839         13.0839         13.0839          0.0000          0.0000          0.0000
   3.5000         13.1558         13.1558         13.1558          0.0000          0.0000          0.0000
   3.5200         13.2212         13.2212         13.2212          0.0000          0.0000          0.0000
   3.5400         13.2806         13.2806         13.2806          0.0000          0.0000          0.0000
   3.5600         13.3346         13.3346         13.3346          0.0000          0.0000          0.0000
   3.5800         13.3837         13.3837         13.3837          0.0000          0.0000          0.0000
   3.6000         13.4284         13.4284         13.4284          0.0000          0.0000          0.0000
   3.6200         13.4691         13.4691         13.4691          0.0000          0.0000          0.0000
   3.6400         13.5060         13.5060         13.5060          0.0000          0.0000          0.0000
   3.6600         13.5392         13.5392         13.5392          0.0000          0.0000          0.0000
   3.6800         13.5685         13.5685         13.5685          0.0000          0.0000          0.0000
   3.7000         13.5938         13.5938         13.5938          0.0000          0.0000          0.0000
   3.7200         13.6146         13.6146         13.6146          0.0000          0.0000          0.0000
   3.7400         13.6307         13.6307         13.6307          0.0000          0.0000          0.0000
   3.7600         13.6416         13.6416         13.6416          0.0000          0.0000          0.0000
   3.7800         13.6469         13.6469         13.6469          0.0000          0.0000          0.0000
   3.8000         13.6465         13.6465         13.6465          0.0000          0.0000          0.0000
   3.8200         13.6402         13.6402         13.6402          0.0000          0.0000          0.0000
   3.8400         13.6282         13.6282         13.6282          0.0000          0.0000          0.0000
   3.8600         13.6109         13.6109         13.6109          0.0000          0.0000          0.0000
   3.8800         13.5890         13.5890         13.5890          0.0000          0.0000          0.0000
   3.9000         13.5635         13.5635         13.5635          0.0000          0.0000          0.0000
   3.9200         13.5355         13.5355         13.5355          0.0000          0.0000          0.0000
   3.9400         13.5067         13.5067         13.5067          0.0000          0.0000          0.0000
   3.9600         13.4787         13.4787         13.4787          0.0000          0.0000          0.0000
   3.9800         13.4534         13.4534         13.4534          0.0000          0.0000          0.0000
   4.0000         13.4326         13.4326         13.4326          0.0000          0.0000          0.0000
   4.0200         13.4180         13.4180         13.4180          0.0000          0.0000          0.0000
   4.0400         13.4113         13.4113         13.4113          0.0000          0.0000          0.0000
   4.0600         13.4137         13.4137         13.4137          0.0000          0.0000          0.0000
   4.0800         13.4259         13.4259         13.4259          0.0000          0.0000          0.0000
   4.1000         13.4484         13.4484         13.4484          0.0000          0.0000          0.0000
   4.1200         13.4811         13.4811         13.4811          0.0000          0.0000          0.0000
   4.1400         13.5234         13.5234         13.5234          0.0000          0.0000          0.0000
   4.1600         13.5741         13.5741         13.5741          0.0000          0.0000          0.0000
   4.1800         13.6319         13.6319         13.6319          0.0000          0.0000          0.0000
   4.2000         13.6952         13.6952         13.6952          0.0000          0.0000          0.0000
   4.2200         13.7619         13.7619         13.7619          0.0000          0.0000          0.0000
   4.2400         13.8302         13.8302         13.8302          0.0000          0.0000          0.0000
   4.2600         13.8980         13.8980         13.8980          0.0000          0.0000          0.0000
   4.2800         13.9636         13.9636         13.9636          0.0000          0.0000          0.0000
   4.3000         14.0252         14.0252         14.0252          0.0000          0.0000          0.0000
   4.3200         14.0813         14.0813         14.0813          0.0000          0.0000          0.0000
   4.3400         14.1307         14.1307         14.1307          0.0000          0.0000          0.0000
   4.3600         14.1726         14.1726         14.1726          0.0000          0.0000          0.0000
   4.3800         14.2062         14.2062         14.2062          0.0000          0.0000          0.0000
   4.4000         14.2313         14.2313         14.2313          0.0000          0.0000          0.0000
   4.4200         14.2478         14.2478         14.2478          0.0000          0.0000          0.0000
   4.4400         14.2559         14.2559         14.2559          0.0000          0.0000          0.0000
   4.4600         14.2563         14.2563         14.2563          0.0000          0.0000          0.0000
   4.4800         14.2495         14.2495         14.2495          0.0000          0.0000          0.0000
   4.5000         14.2365         14.2365         14.2365          0.0000          0.0000          0.0000
   4.5200         14.2181         14.2181         14.2181          0.0000          0.0000          0.0000
   4.5400         14.1954         14.1954         14.1954          0.0000          0.0000          0.0000
   4.5600         14.1694         14.1694         14.1694          0.0000          0.0000          0.0000
   4.5800         14.1410         14.1410         14.1410          0.0000          0.0000          0.0000
   4.6000         14.1112         14.1112         14.1112          0.0000          0.0000          0.0000
   4.6200         14.0808         14.0808         14.0808          0.0000          0.0000          0.0000
   4.6400         14.0503         14.0503         14.0503          0.0000          0.0000          0.0000
   4.6600         14.0204         14.0204         14.0204          0.0000          0.0000          0.0000
   4.6800         13.9916         13.9916         13.9916          0.0000          0.0000          0.0000
   4.7000         13.9644         13.9644         13.9644          0.0000          0.0000          0.0000
   4.7200         13.9393         13.9393         13.9393          0.0000          0.0000          0.0000
   4.7400         13.9169         13.9169         13.9169          0.0000          0.0000          0.0000
   4.7600         13.8977         13.8977         13.8977          0.0000          0.0000          0.0000
   4.7800         13.8825         13.8825         13.8825          0.0000          0.0000          0.0000
   4.8000         13.8720         13.8720         13.8720          0.0000          0.0000          0.0000
   4.8200         13.8669         13.8669         13.8669          0.0000          0.0000          0.0000
   4.8400         13.8680         13.8680         13.8680          0.0000          0.0000          0.0000
   4.8600         13.8758         13.8758         13.8758          0.0000          0.0000          0.0000
   4.8800         13.8908         13.8908         13.8908          0.0000          0.0000          0.0000
   4.9000         13.9130         13.9130         13.9130          0.0000          0.0000          0.0000
   4.9200         13.9424         13.9424         13.9424          0.0000          0.0000          0.0000
   4.9400         13.9786         13.9786         13.9786          0.0000          0.0000          0.0000
   4.9600         14.0206         14.0206         14.0206          0.0000          0.0000          0.0000
   4.9800         14.0676         14.0676         14.0676          0.0000          0.0000          0.0000
   5.0000         14.1181         14.1181         14.1181          0.0000          0.0000          0.0000
   5.0200         14.1707         14.1707         14.1707          0.0000          0.0000          0.0000
   5.0400         14.2238         14.2238         14.2238          0.0000          0.0000          0.0000
   5.0600         14.2756         14.2756         14.2756          0.0000          0.0000          0.0000
   5.0800         14.3247         14.3247         14.3247          0.0000          0.0000          0.0000
   5.1000         14.3695         14.3695         14.3695          0.0000          0.0000          0.0000
   5.1200         14.4086         14.4086         14.4086          0.0000          0.0000          0.0000
   5.1400         14.4410         14.4410         14.4410          0.0000          0.0000          0.0000
   5.1600         14.4658         14.4658         14.4658          0.0000          0.0000          0.0000
   5.1800         14.4823         14.4823         14.4823          0.0000          0.0000          0.0000
   5.2000         14.4900         14.4900         14.4900          0.0000          0.0000          0.0000
   5.2200         14.4887         14.4887         14.4887          0.0000          0.0000          0.0000
   5.2400         14.4785         14.4785         14.4785          0.0000          0.0000          0.0000
   5.2600         14.4596         14.4596         14.4596          0.0000          0.0000          0.0000
   5.2800         14.4322         14.4322         14.4322          0.0000          0.0000          0.0000
   5.3000         14.3969         14.3969         14.3969          0.0000          0.0000          0.0000
   5.3200         14.3544         14.3544         14.3544          0.0000          0.0000          0.0000
   5.3400         14.3053         14.3053         14.3053          0.0000          0.0000          0.0000
   5.3600         14.2505         14.2505         14.2505          0.0000          0.0000          0.0000
   5.3800         14.1909         14.1909         14.1909          0.0000          0.0000          0.0000
   5.4000         14.1276         14.1276         14.1276          0.0000          0.0000          0.0000
   5.4200         14.0615         14.0615         14.0615          0.0000          0.0000          0.0000
   5.4400         13.9937         13.9937         13.9937          0.0000          0.0000          0.0000
   5.4600         13.9256         13.9256         13.9256          0.0000          0.0000          0.0000
   5.4800         13.8582         13.8582         13.8582          0.0000          0.0000          0.0000
   5.5000         13.7928         13.7928         13.7928          0.0000          0.0000          0.0000
   5.5200         13.7307         13.7307         13.7307          0.0000          0.0000          0.0000
   5.5400         13.6731         13.6731         13.6731          0.0000          0.0000          0.0000
   5.5600         13.6213         13.6213         13.6213          0.0000          0.0000          0.0000
   5.5800         13.5763         13.5763         13.5763          0.0000          0.0000          0.0000
   5.6000         13.5392         13.5392         13.5392          0.0000          0.0000          0.0000
   5.6200         13.5110         13.5110         13.5110          0.0000          0.0000          0.0000
   5.6400         13.4923         13.4923         13.4923          0.0000          0.0000          0.0000
   5.6600         13.4838         13.4838         13.4838          0.0000          0.0000          0.0000
   5.6800         13.4858         13.4858         13.4858          0.0000          0.0000          0.0000
   5.7000         13.4984         13.4984         13.4984          0.0000          0.0000          0.0000
   5.7200         13.5212         13.5212         13.5212          0.0000          0.0000          0.0000
   5.7400         13.5538         13.5538         13.5538          0.0000          0.0000          0.0000
   5.7600         13.5954         13.5954         13.5954          0.0000          0.0000          0.0000
   5.7800         13.6449         13.6449         13.6449          0.0000          0.0000          0.0000
   5.8000         13.7010         13.7010         13.7010          0.0000          0.0000          0.0000
   5.8200         13.7622         13.7622         13.7622          0.0000          0.0000          0.0000
   5.8400         13.8269         13.8269         13.8269          0.0000          0.0000          0.0000
   5.8600         13.8934         13.8934         13.8934          0.0000          0.0000          0.0000
   5.8800         13.9600         13.9600         13.9600          0.0000          0.0000          0.0000
   5.9000         14.0253         14.0253         14.0253          0.0000          0.0000          0.0000
   5.9200         14.0877         14.0877         14.0877          0.0000          0.0000          0.0000
   5.9400         14.1462         14.1462         14.1462          0.0000          0.0000          0.0000
   5.9600         14.1998         14.1998         14.1998          0.0000          0.0000          0.0000
   5.9800         14.2479         14.2479         14.2479          0.0000          0.0000          0.0000
   6.0000         14.2903         14.2903         14.2903          0.0000          0.0000          0.0000
   6.0200         14.3270         14.3270         14.3270          0.0000          0.0000          0.0000
   6.0400         14.3582         14.3582         14.3582          0.0000          0.0000          0.0000
   6.0600         14.3845         14.3845         14.3845          0.0000          0.0000          0.0000
   6.0800         14.4065         14.4065         14.4065          0.0000          0.0000          0.0000
   6.1000         14.4250         14.4250         14.4250          0.0000          0.0000          0.0000
   6.1200         14.4406         14.4406         14.4406          0.0000          0.0000          0.0000
   6.1400         14.4539         14.4539         14.4539          0.0000          0.0000          0.0000
   6.1600         14.4655         14.4655         14.4655          0.0000          0.0000          0.0000
   6.1800         14.4756         14.4756         14.4756          0.0000          0.0000          0.0000
   6.2000         14.4844         14.4844         14.4844          0.0000          0.0000          0.0000
   6.2200         14.4917         14.4917         14.4917          0.0000          0.0000          0.0000
   6.2400         14.4974         14.4974         14.4974          0.0000          0.0000          0.0000
   6.2600         14.5010         14.5010         14.5010          0.0000          0.0000          0.0000
   6.2800         14.5022         14.5022         14.5022          0.0000          0.0000          0.0000
   6.3000         14.5004         14.5004         14.5004          0.0000          0.0000          0.0000
   6.3200         14.4953         14.4953         14.4953          0.0000          0.0000          0.0000
   6.3400         14.4865         14.4865         14.4865          0.0000          0.0000          0.0000
   6.3600         14.4736         14.4736         14.4736          0.0000          0.0000          0.0000
   6.3800         14.4567         14.4567         14.4567          0.0000          0.0000          0.0000
   6.4000         14.4355         14.4355         14.4355          0.0000          0.0000          0.0000
   6.4200         14.4103         14.4103         14.4103          0.0000          0.0000          0.0000
   6.4400         14.3810         14.3810         14.3810          0.0000          0.0000          0.0000
   6.4600         14.3481         14.3481         14.3481          0.0000          0.0000          0.0000
   6.4800         14.3118         14.3118         14.3118          0.0000          0.0000          0.0000
   6.5000         14.2726         14.2726         14.2726          0.0000          0.0000          0.0000
   6.5200         14.2309         14.2309         14.2309          0.0000          0.0000          0.0000
   6.5400         14.1873         14.1873         14.1873          0.0000          0.0000          0.0000
   6.5600         14.1424         14.1424         14.1424          0.0000          0.0000          0.0000
   6.5800         14.0968         14.0968         14.0968          0.0000          0.0000          0.0000
   6.6000         14.0513         14.0513         14.0513          0.0000          0.0000          0.0000
   6.6200         14.0066         14.0066         14.0066          0.0000          0.0000          0.0000
   6.6400         13.9633         13.9633         13.9633          0.0000          0.0000          0.0000
   6.6600         13.9223         13.9223         13.9223          0.0000          0.0000          0.0000
   6.6800         13.8841         13.8841         13.8841          0.0000          0.0000          0.0000
   6.7000         13.8495         13.8495         13.8495          0.0000          0.0000          0.0000
   6.7200         13.8188         13.8188         13.8188          0.0000          0.0000          0.0000
   6.7400         13.7925         13.7925         13.7925          0.0000          0.0000          0.0000
   6.7600         13.7709         13.7709         13.7709          0.0000          0.0000          0.0000
   6.7800         13.7540         13.7540         13.7540          0.0000          0.0000          0.0000
   6.8000         13.7419         13.7419         13.7419          0.0000          0.0000          0.0000
   6.8200         13.7345         13.7345         13.7345          0.0000          0.0000          0.0000
   6.8400         13.7316         13.7316         13.7316          0.0000          0.0000          0.0000
   6.8600         13.7329         13.7329         13.7329          0.0000          0.0000          0.0000
   6.8800         13.7381         13.7381         13.7381          0.0000          0.0000          0.0000
   6.9000         13.7469         13.7469         13.7469          0.0000          0.0000          0.0000
   6.9200         13.7589         13.7589         13.7589          0.0000          0.0000          0.0000
   6.9400         13.7738         13.7738         13.7738          0.0000          0.0000          0.0000
   6.9600         13.7912         13.7912         13.7912          0.0000          0.0000          0.0000
   6.9800         13.8107         13.8107         13.8107          0.0000          0.0000          0.0000
   7.0000         13.8318         13.8318         13.8318          0.0000          0.0000          0.0000
   7.0200         13.8540         13.8540         13.8540          0.0000          0.0000          0.0000
   7.0400         13.8768         13.8768         13.8768          0.0000          0.0000          0.0000
   7.0600         13.8996         13.8996         13.8996          0.0000          0.0000          0.0000
   7.0800         13.9215         13.9215         13.9215          0.0000          0.0000          0.0000
   7.1000         13.9418         13.9418         13.9418          0.0000          0.0000          0.0000
   7.1200         13.9598         13.9598         13.9598          0.0000          0.0000          0.0000
   7.1400         13.9745         13.9745         13.9745          0.0000          0.0000          0.0000
   7.1600         13.9850         13.9850         13.9850          0.0000          0.0000          0.0000
   7.1800         13.9906         13.9906         13.9906          0.0000          0.0000          0.0000
   7.2000         13.9904         13.9904         13.9904          0.0000          0.0000          0.0000
   7.2200         13.9838         13.9838         13.9838          0.0000          0.0000          0.0000
   7.2400         13.9702         13.9702         13.9702          0.0000          0.0000          0.0000
   7.2600         13.9492         13.9492         13.9492          0.0000          0.0000          0.0000
   7.2800         13.9205         13.9205         13.9205          0.0000          0.0000          0.0000
   7.3000         13.8840         13.8840         13.8840          0.0000          0.0000          0.0000
   7.3200         13.8399         13.8399         13.8399          0.0000          0.0000          0.0000
   7.3400         13.7886         13.7886         13.7886          0.0000          0.0000          0.0000
   7.3600         13.7304         13.7304         13.7304          0.0000          0.0000          0.0000
   7.3800         13.6660         13.6660         13.6660          0.0000          0.0000          0.0000
   7.4000         13.5961         13.5961         13.5961          0.0000          0.0000          0.0000
   7.4200         13.5216         13.5216         13.5216          0.0000          0.0000          0.0000
   7.4400         13.4434         13.4434         13.4434          0.0000          0.0000          0.0000
   7.4600         13.3621         13.3621         13.3621          0.0000          0.0000          0.0000
   7.4800         13.2787         13.2787         13.2787          0.0000          0.0000          0.0000
   7.5000         13.1938         13.1938         13.1938          0.0000          0.0000          0.0000
   7.5200         13.1082         13.1082         13.1082          0.0000          0.0000          0.0000
   7.5400         13.0225         13.0225         13.0225          0.0000          0.0000          0.0000
   7.5600         12.9371         12.9371         12.9371          0.0000          0.0000          0.0000
   7.5800         12.8528         12.8528         12.8528          0.0000          0.0000          0.0000
   7.6000         12.7701         12.7701         12.7701          0.0000          0.0000          0.0000
   7.6200         12.6896         12.6896         12.6896          0.0000          0.0000          0.0000
   7.6400         12.6122         12.6122         12.6122          0.0000          0.0000          0.0000
   7.6600         12.5386         12.5386         12.5386          0.0000          0.0000          0.0000
   7.6800         12.4697         12.4697         12.4697          0.0000          0.0000          0.0000
   7.7000         12.4064         12.4064         12.4064          0.0000          0.0000          0.0000
   7.7200         12.3495         12.3495         12.3495          0.0000          0.0000          0.0000
   7.7400         12.2998         12.2998         12.2998          0.0000          0.0000          0.0000
   7.7600         12.2578         12.2578         12.2578          0.0000          0.0000          0.0000
   7.7800         12.2239         12.2239         12.2239          0.0000          0.0000          0.0000
   7.8000         12.1981         12.1981         12.1981          0.0000          0.0000          0.0000
   7.8200         12.1801         12.1801         12.1801          0.0000          0.0000          0.0000
   7.8400         12.1695         12.1695         12.1695          0.0000          0.0000          0.0000
   7.8600         12.1653         12.1653         12.1653          0.0000          0.0000          0.0000
   7.8800         12.1664         12.1664         12.1664          0.0000          0.0000          0.0000
   7.9000         12.1717         12.1717         12.1717          0.0000          0.0000          0.0000
   7.9200         12.1797         12.1797         12.1797          0.0000          0.0000          0.0000
   7.9400         12.1891         12.1891         12.1891          0.0000          0.0000          0.0000
   7.9600         12.1985         12.1985         12.1985          0.0000          0.0000          0.0000
   7.9800         12.2070         12.2070         12.2070          0.0000          0.0000          0.0000
   8.0000         12.2134         12.2134         12.2134          0.0000          0.0000          0.0000
   8.0200         12.2170         12.2170         12.2170          0.0000          0.0000          0.0000
   8.0400         12.2173         12.2173         12.2173          0.0000          0.0000          0.0000
   8.0600         12.2141         12.2141         12.2141          0.0000          0.0000          0.0000
   8.0800         12.2074         12.2074         12.2074          0.0000          0.0000          0.0000
   8.1000         12.1974         12.1974         12.1974          0.0000          0.0000          0.0000
   8.1200         12.1844         12.1844         12.1844          0.0000          0.0000          0.0000
   8.1400         12.1689         12.1689         12.1689          0.0000          0.0000          0.0000
   8.1600         12.1515         12.1515         12.1515          0.0000          0.0000          0.0000
   8.1800         12.1327         12.1327         12.1327          0.0000          0.0000          0.0000
   8.2000         12.1130         12.1130         12.1130          0.0000          0.0000          0.0000
   8.2200         12.0929         12.0929         12.0929          0.0000          0.0000          0.0000
   8.2400         12.0726         12.0726         12.0726          0.0000          0.0000          0.0000
   8.2600         12.0525         12.0525         12.0525          0.0000          0.0000          0.0000
   8.2800         12.0326         12.0326         12.0326          0.0000          0.0000          0.0000
   8.3000         12.0131         12.0131         12.0131          0.0000          0.0000          0.0000
   8.3200         11.9939         11.9939         11.9939          0.0000          0.0000          0.0000
   8.3400         11.9749         11.9749         11.9749          0.0000          0.0000          0.0000
   8.3600         11.9563         11.9563         11.9563          0.0000          0.0000          0.0000
   8.3800         11.9380         11.9380         11.9380          0.0000          0.0000          0.0000
   8.4000         11.9201         11.9201         11.9201          0.0000          0.0000          0.0000
   8.4200         11.9028         11.9028         11.9028          0.0000          0.0000          0.0000
   8.4400         11.8865         11.8865         11.8865          0.0000          0.0000          0.0000
   8.4600         11.8717         11.8717         11.8717          0.0000          0.0000          0.0000
   8.4800         11.8589         11.8589         11.8589          0.0000          0.0000          0.0000
   8.5000         11.8489         11.8489         11.8489          0.0000          0.0000          0.0000
   8.5200         11.8426         11.8426         11.8426          0.0000          0.0000          0.0000
   8.5400         11.8406         11.8406         11.8406          0.0000          0.0000          0.0000
   8.5600         11.8440         11.8440         11.8440          0.0000          0.0000          0.0000
   8.5800         11.8534         11.8534         11.8534          0.0000          0.0000          0.0000
   8.6000         11.8695         11.8695         11.8695          0.0000          0.0000          0.0000
   8.6200         11.8928         11.8928         11.8928          0.0000          0.0000          0.0000
   8.6400         11.9233         11.9233         11.9233          0.0000          0.0000          0.0000
   8.6600         11.9609         11.9609         11.9609          0.0000          0.0000          0.0000
   8.6800         12.0052         12.0052         12.0052          0.0000          0.0000          0.0000
   8.7000         12.0555         12.0555         12.0555          0.0000          0.0000          0.0000
   8.7200         12.1106         12.1106         12.1106          0.0000          0.0000          0.0000
   8.7400         12.1695         12.1695         12.1695          0.0000          0.0000          0.0000
   8.7600         12.2306         12.2306         12.2306          0.0000          0.0000          0.0000
   8.7800         12.2926         12.2926         12.2926          0.0000          0.0000          0.0000
   8.8000         12.3543         12.3543         12.3543          0.0000          0.0000          0.0000
   8.8200         12.4142         12.4142         12.4142          0.0000          0.0000          0.0000
   8.8400         12.4715         12.4715         12.4715          0.0000          0.0000          0.0000
   8.8600         12.5255         12.5255         12.5255          0.0000          0.0000          0.0000
   8.8800         12.5756         12.5756         12.5756          0.0000          0.0000          0.0000
   8.9000         12.6220         12.6220         12.6220          0.0000          0.0000          0.0000
   8.9200         12.6648         12.6648         12.6648          0.0000          0.0000          0.0000
   8.9400         12.7046         12.7046         12.7046          0.0000          0.0000          0.0000
   8.9600         12.7423         12.7423         12.7423          0.0000          0.0000          0.0000
   8.9800         12.7789         12.7789         12.7789          0.0000          0.0000          0.0000
   9.0000         12.8154         12.8154         12.8154          0.0000          0.0000          0.0000
   9.0200         12.8528         12.8528         12.8528          0.0000          0.0000          0.0000
   9.0400         12.8922         12.8922         12.8922          0.0000          0.0000          0.0000
   9.0600         12.9343         12.9343         12.9343          0.0000          0.0000          0.0000
   9.0800         12.9799         12.9799         12.9799          0.0000          0.0000          0.0000
   9.1000         13.0291         13.0291         13.0291          0.0000          0.0000          0.0000
   9.1200         13.0823         13.0823         13.0823          0.0000          0.0000          0.0000
   9.1400         13.1391         13.1391         13.1391          0.0000          0.0000          0.0000
   9.1600         13.1995         13.1995         13.1995          0.0000          0.0000          0.0000
   9.1800         13.2627         13.2627         13.2627          0.0000          0.0000          0.0000
   9.2000         13.3284         13.3284         13.3284          0.0000          0.0000          0.0000
   9.2200         13.3959         13.3959         13.3959          0.0000          0.0000          0.0000
   9.2400         13.4645         13.4645         13.4645          0.0000          0.0000          0.0000
   9.2600         13.5337         13.5337         13.5337          0.0000          0.0000          0.0000
   9.2800         13.6030         13.6030         13.6030          0.0000          0.0000          0.0000
   9.3000         13.6720         13.6720         13.6720          0.0000          0.0000          0.0000
   9.3200         13.7405         13.7405         13.7405          0.0000          0.0000          0.0000
   9.3400         13.8083         13.8083         13.8083          0.0000          0.0000          0.0000
   9.3600         13.8753         13.8753         13.8753          0.0000          0.0000          0.0000
   9.3800         13.9416         13.9416         13.9416          0.0000          0.0000          0.0000
   9.4000         14.0073         14.0073         14.0073          0.0000          0.0000          0.0000
   9.4200         14.0723         14.0723         14.0723          0.0000          0.0000          0.0000
   9.4400         14.1368         14.1368         14.1368          0.0000          0.0000          0.0000
   9.4600         14.2007         14.2007         14.2007          0.0000          0.0000          0.0000
   9.4800         14.2638         14.2638         14.2638          0.0000          0.0000          0.0000
   9.5000         14.3258         14.3258         14.3258          0.0000          0.0000          0.0000
   9.5200         14.3862         14.3862         14.3862          0.0000          0.0000          0.0000
   9.5400         14.4446         14.4446         14.4446          0.0000          0.0000          0.0000
   9.5600         14.5002         14.5002         14.5002          0.0000          0.0000          0.0000
   9.5800         14.5521         14.5521         14.5521          0.0000          0.0000          0.0000
   9.6000         14.5995         14.5995         14.5995          0.0000          0.0000          0.0000
   9.6200         14.6415         14.6415         14.6415          0.0000          0.0000          0.0000
   9.6400         14.6774         14.6774         14.6774          0.0000          0.0000          0.0000
   9.6600         14.7063         14.7063         14.7063          0.0000          0.0000          0.0000
   9.6800         14.7277         14.7277         14.7277          0.0000          0.0000          0.0000
   9.7000         14.7411         14.7411         14.7411          0.0000          0.0000          0.0000
   9.7200         14.7464         14.7464         14.7464          0.0000          0.0000          0.0000
   9.7400         14.7435         14.7435         14.7435          0.0000          0.0000          0.0000
   9.7600         14.7326         14.7326         14.7326          0.0000          0.0000          0.0000
   9.7800         14.7141         14.7141         14.7141          0.0000          0.0000          0.0000
   9.8000         14.6886         14.6886         14.6886          0.0000          0.0000          0.0000
   9.8200         14.6567         14.6567         14.6567          0.0000          0.0000          0.0000
   9.8400         14.6193         14.6193         14.6193          0.0000          0.0000          0.0000
   9.8600         14.5773         14.5773         14.5773          0.0000          0.0000          0.0000
   9.8800         14.5316         14.5316         14.5316          0.0000          0.0000          0.0000
   9.9000         14.4832         14.4832         14.4832          0.0000          0.0000          0.0000
   9.9200         14.4329         14.4329         14.4329          0.0000          0.0000          0.0000
   9.9400         14.3818         14.3818         14.3818          0.0000          0.0000          0.0000
   9.9600         14.3306         14.3306         14.3306          0.0000          0.0000          0.0000
   9.9800         14.2799         14.2799         14.2799          0.0000          0.0000          0.0000
  10.0000         14.2306         14.2306         14.2306          0.0000          0.0000          0.0000
  10.0200         14.1830         14.1830         14.1830          0.0000          0.0000          0.0000
  10.0400         14.1376         14.1376         14.1376          0.0000          0.0000          0.0000
  10.0600         14.0948         14.0948         14.0948          0.0000          0.0000          0.0000
  10.0800         14.0547         14.0547         14.0547          0.0000          0.0000          0.0000
  10.1000         14.0176         14.0176         14.0176          0.0000          0.0000          0.0000
  10.1200         13.9835         13.9835         13.9835          0.0000          0.0000          0.0000
  10.1400         13.9524         13.9524         13.9524          0.0000          0.0000          0.0000
  10.1600         13.9242         13.9242         13.9242          0.0000          0.0000          0.0000
  10.1800         13.8990         13.8990         13.8990          0.0000          0.0000          0.0000
  10.2000         13.8765         13.8765         13.8765          0.0000          0.0000          0.0000
  10.2200         13.8566         13.8566         13.8566          0.0000          0.0000          0.0000
  10.2400         13.8391         13.8391         13.8391          0.0000          0.0000          0.0000
  10.2600         13.8236         13.8236         13.8236          0.0000          0.0000          0.0000
  10.2800         13.8100         13.8100         13.8100          0.0000          0.0000          0.0000
  10.3000         13.7978         13.7978         13.7978          0.0000          0.0000          0.0000
  10.3200         13.7866         13.7866         13.7866          0.0000          0.0000          0.0000
  10.3400         13.7760         13.7760         13.7760          0.0000          0.0000          0.0000
  10.3600         13.7655         13.7655         13.7655          0.0000          0.0000          0.0000
  10.3800         13.7545         13.7545         13.7545          0.0000          0.0000          0.0000
  10.4000         13.7426         13.7426         13.7426          0.0000          0.0000          0.0000
  10.4200         13.7293         13.7293         13.7293          0.0000          0.0000          0.0000
  10.4400         13.7143         13.7143         13.7143          0.0000          0.0000          0.0000
  10.4600         13.6973         13.6973         13.6973          0.0000          0.0000          0.0000
  10.4800         13.6780         13.6780         13.6780          0.0000          0.0000          0.0000
  10.5000         13.6565         13.6565         13.6565          0.0000          0.0000          0.0000
  10.5200         13.6330         13.6330         13.6330          0.0000          0.0000          0.0000
  10.5400         13.6076         13.6076         13.6076          0.0000          0.0000          0.0000
  10.5600         13.5809         13.5809         13.5809          0.0000          0.0000          0.0000
  10.5800         13.5533         13.5533         13.5533          0.0000          0.0000          0.0000
  10.6000         13.5255         13.5255         13.5255          0.0000          0.0000          0.0000
  10.6200         13.4983         13.4983         13.4983          0.0000          0.0000          0.0000
  10.6400         13.4722         13.4722         13.4722          0.0000          0.0000          0.0000
  10.6600         13.4481         13.4481         13.4481          0.0000          0.0000          0.0000
  10.6800         13.4264         13.4264         13.4264          0.0000          0.0000          0.0000
  10.7000         13.4078         13.4078         13.4078          0.0000          0.0000          0.0000
  10.7200         13.3926         13.3926         13.3926          0.0000          0.0000          0.0000
  10.7400         13.3812         13.3812         13.3812          0.0000          0.0000          0.0000
  10.7600         13.3736         13.3736         13.3736          0.0000          0.0000          0.0000
  10.7800         13.3698         13.3698         13.3698          0.0000          0.0000          0.0000
  10.8000         13.3698         13.3698         13.3698          0.0000          0.0000          0.0000
  10.8200         13.3732         13.3732         13.3732          0.0000          0.0000          0.0000
  10.8400         13.3799         13.3799         13.3799          0.0000          0.0000          0.0000
  10.8600         13.3894         13.3894         13.3894          0.0000          0.0000          0.0000
  10.8800         13.4014         13.4014         13.4014          0.0000          0.0000          0.0000
  10.9000         13.4155         13.4155         13.4155          0.0000          0.0000          0.0000
  10.9200         13.4312         13.4312         13.4312          0.0000          0.0000          0.0000
  10.9400         13.4484         13.4484         13.4484          0.0000          0.0000          0.0000
  10.9600         13.4664         13.4664         13.4664          0.0000          0.0000          0.0000
  10.9800         13.4852         13.4852         13.4852          0.0000          0.0000          0.0000
  11.0000         13.5042         13.5042         13.5042          0.0000          0.0000          0.0000
  11.0200         13.5233         13.5233         13.5233          0.0000          0.0000          0.0000
  11.0400         13.5421         13.5421         13.5421          0.0000          0.0000          0.0000
  11.0600         13.5603         13.5603         13.5603          0.0000          0.0000          0.0000
  11.0800         13.5777         13.5777         13.5777          0.0000          0.0000          0.0000
  11.1000         13.5940         13.5940         13.5940          0.0000          0.0000          0.0000
  11.1200         13.6089         13.6089         13.6089          0.0000          0.0000          0.0000
  11.1400         13.6222         13.6222         13.6222          0.0000          0.0000          0.0000
  11.1600         13.6337         13.6337         13.6337          0.0000          0.0000          0.0000
  11.1800         13.6433         13.6433         13.6433          0.0000          0.0000          0.0000
  11.2000         13.6510         13.6510         13.6510          0.0000          0.0000          0.0000
  11.2200         13.6568         13.6568         13.6568          0.0000          0.0000          0.0000
  11.2400         13.6608         13.6608         13.6608          0.0000          0.0000          0.0000
  11.2600         13.6634         13.6634         13.6634          0.0000          0.0000          0.0000
  11.2800         13.6647         13.6647         13.6647          0.0000          0.0000          0.0000
  11.3000         13.6653         13.6653         13.6653          0.0000          0.0000          0.0000
  11.3200         13.6657         13.6657         13.6657          0.0000          0.0000          0.0000
  11.3400         13.6662         13.6662         13.6662          0.0000          0.0000          0.0000
  11.3600         13.6673         13.6673         13.6673          0.0000          0.0000          0.0000
  11.3800         13.6695         13.6695         13.6695          0.0000          0.0000          0.0000
  11.4000         13.6731         13.6731         13.6731          0.0000          0.0000          0.0000
  11.4200         13.6784         13.6784         13.6784          0.0000          0.0000          0.0000
  11.4400         13.6854         13.6854         13.6854          0.0000          0.0000          0.0000
  11.4600         13.6941         13.6941         13.6941          0.0000          0.0000          0.0000
  11.4800         13.7046         13.7046         13.7046          0.0000          0.0000          0.0000
  11.5000         13.7165         13.7165         13.7165          0.0000          0.0000          0.0000
  11.5200         13.7296         13.7296         13.7296          0.0000          0.0000          0.0000
  11.5400         13.7438         13.7438         13.7438          0.0000          0.0000          0.0000
  11.5600         13.7587         13.7587         13.7587          0.0000          0.0000          0.0000
  11.5800         13.7742         13.7742         13.7742          0.0000          0.0000          0.0000
  11.6000         13.7902         13.7902         13.7902          0.0000          0.0000          0.0000
  11.6200         13.8066         13.8066         13.8066          0.0000          0.0000          0.0000
  11.6400         13.8235         13.8235         13.8235          0.0000          0.0000          0.0000
  11.6600         13.8409         13.8409         13.8409          0.0000          0.0000          0.0000
  11.6800         13.8591         13.8591         13.8591          0.0000          0.0000          0.0000
  11.7000         13.8780         13.8780         13.8780          0.0000          0.0000          0.0000
  11.7200         13.8979         13.8979         13.8979          0.0000          0.0000          0.0000
  11.7400         13.9187         13.9187         13.9187          0.0000          0.0000          0.0000
  11.7600         13.9405         13.9405         13.9405          0.0000          0.0000          0.0000
  11.7800         13.9630         13.9630         13.9630          0.0000          0.0000          0.0000
  11.8000         13.9859         13.9859         13.9859          0.0000          0.0000          0.0000
  11.8200         14.0090         14.0090         14.0090          0.0000          0.0000          0.0000
  11.8400         14.0317         14.0317         14.0317          0.0000          0.0000          0.0000
  11.8600         14.0535         14.0535         14.0535          0.0000          0.0000          0.0000
  11.8800         14.0738         14.0738         14.0738          0.0000          0.0000          0.0000
  11.9000         14.0921         14.0921         14.0921          0.0000          0.0000          0.0000
  11.9200         14.1080         14.1080         14.1080          0.0000          0.0000          0.0000
  11.9400         14.1210         14.1210         14.1210          0.0000          0.0000          0.0000
  11.9600         14.1308         14.1308         14.1308          0.0000          0.0000          0.0000
  11.9800         14.1372         14.1372         14.1372          0.0000          0.0000          0.0000
  12.0000         14.1402         14.1402         14.1402          0.0000          0.0000          0.0000
  12.0200         14.1400         14.1400         14.1400          0.0000          0.0000          0.0000
  12.0400         14.1367         14.1367         14.1367          0.0000          0.0000          0.0000
  12.0600         14.1307         14.1307         14.1307          0.0000          0.0000          0.0000
  12.0800         14.1226         14.1226         14.1226          0.0000          0.0000          0.0000
  12.1000         14.1128         14.1128         14.1128          0.0000          0.0000          0.0000
  12.1200         14.1019         14.1019         14.1019          0.0000          0.0000          0.0000
  12.1400         14.0905         14.0905         14.0905          0.0000          0.0000          0.0000
  12.1600         14.0791         14.0791         14.0791          0.0000          0.0000          0.0000
  12.1800         14.0682         14.0682         14.0682          0.0000          0.0000          0.0000
  12.2000         14.0581         14.0581         14.0581          0.0000          0.0000          0.0000
  12.2200         14.0491         14.0491         14.0491          0.0000          0.0000          0.0000
  12.2400         14.0413         14.0413         14.0413          0.0000          0.0000          0.0000
  12.2600         14.0346         14.0346         14.0346          0.0000          0.0000          0.0000
  12.2800         14.0290         14.0290         14.0290          0.0000          0.0000          0.0000
  12.3000         14.0243         14.0243         14.0243          0.0000          0.0000          0.0000
  12.3200         14.0201         14.0201         14.0201          0.0000          0.0000          0.0000
  12.3400         14.0160         14.0160         14.0160          0.0000          0.0000          0.0000
  12.3600         14.0118         14.0118         14.0118          0.0000          0.0000          0.0000
  12.3800         14.0072         14.0072         14.0072          0.0000          0.0000          0.0000
  12.4000         14.0018         14.0018         14.0018          0.0000          0.0000          0.0000
  12.4200         13.9957         13.9957         13.9957          0.0000          0.0000          0.0000
  12.4400         13.9886         13.9886         13.9886          0.0000          0.0000          0.0000
  12.4600         13.9809         13.9809         13.9809          0.0000          0.0000          0.0000
  12.4800         13.9727         13.9727         13.9727          0.0000          0.0000          0.0000
  12.5000         13.9645         13.9645         13.9645          0.0000          0.0000          0.0000
  12.5200         13.9567         13.9567         13.9567          0.0000          0.0000          0.0000
  12.5400         13.9499         13.9499         13.9499          0.0000          0.0000          0.0000
  12.5600         13.9446         13.9446         13.9446          0.0000          0.0000          0.0000
  12.5800         13.9416         13.9416         13.9416          0.0000          0.0000          0.0000
  12.6000         13.9413         13.9413         13.9413          0.0000          0.0000          0.0000
  12.6200         13.9441         13.9441         13.9441          0.0000          0.0000          0.0000
  12.6400         13.9504         13.9504         13.9504          0.0000          0.0000          0.0000
  12.6600         13.9603         13.9603         13.9603          0.0000          0.0000          0.0000
  12.6800         13.9738         13.9738         13.9738          0.0000          0.0000          0.0000
  12.7000         13.9908         13.9908         13.9908          0.0000          0.0000          0.0000
  12.7200         14.0111         14.0111         14.0111          0.0000          0.0000          0.0000
  12.7400         14.0342         14.0342         14.0342          0.0000          0.0000          0.0000
  12.7600         14.0598         14.0598         14.0598          0.0000          0.0000          0.0000
  12.7800         14.0874         14.0874         14.0874          0.0000          0.0000          0.0000
  12.8000         14.1164         14.1164         14.1164          0.0000          0.0000          0.0000
  12.8200         14.1463         14.1463         14.1463          0.0000          0.0000          0.0000
  12.8400         14.1767         14.1767         14.1767          0.0000          0.0000          0.0000
  12.8600         14.2071         14.2071         14.2071          0.0000          0.0000          0.0000
  12.8800         14.2371         14.2371         14.2371          0.0000          0.0000          0.0000
  12.9000         14.2662         14.2662         14.2662          0.0000          0.0000          0.0000
  12.9200         14.2942         14.2942         14.2942          0.0000          0.0000          0.0000
  12.9400         14.3206         14.3206         14.3206          0.0000          0.0000          0.0000
  12.9600         14.3449         14.3449         14.3449          0.0000          0.0000          0.0000
  12.9800         14.3667         14.3667         14.3667          0.0000          0.0000          0.0000
  13.0000         14.3855         14.3855         14.3855          0.0000          0.0000          0.0000
  13.0200         14.4009         14.4009         14.4009          0.0000          0.0000          0.0000
  13.0400         14.4121         14.4121         14.4121          0.0000          0.0000          0.0000
  13.0600         14.4186         14.4186         14.4186          0.0000          0.0000          0.0000
  13.0800         14.4199         14.4199         14.4199          0.0000          0.0000          0.0000
  13.1000         14.4154         14.4154         14.4154          0.0000          0.0000          0.0000
  13.1200         14.4047         14.4047         14.4047          0.0000          0.0000          0.0000
  13.1400         14.3875         14.3875         14.3875          0.0000          0.0000          0.0000
  13.1600         14.3636         14.3636         14.3636          0.0000          0.0000          0.0000
  13.1800         14.3332         14.3332         14.3332          0.0000          0.0000          0.0000
  13.2000         14.2964         14.2964         14.2964          0.0000          0.0000          0.0000
  13.2200         14.2540         14.2540         14.2540          0.0000          0.0000          0.0000
  13.2400         14.2066         14.2066         14.2066          0.0000          0.0000          0.0000
  13.2600         14.1553         14.1553         14.1553          0.0000          0.0000          0.0000
  13.2800         14.1014         14.1014         14.1014          0.0000          0.0000          0.0000
  13.3000         14.0462         14.0462         14.0462          0.0000          0.0000          0.0000
  13.3200         13.9913         13.9913         13.9913          0.0000          0.0000          0.0000
  13.3400         13.9380         13.9380         13.9380          0.0000          0.0000          0.0000
  13.3600         13.8880         13.8880         13.8880          0.0000          0.0000          0.0000
  13.3800         13.8424         13.8424         13.8424          0.0000          0.0000          0.0000
  13.4000         13.8024         13.8024         13.8024          0.0000          0.0000          0.0000
  13.4200         13.7686         13.7686         13.7686          0.0000          0.0000          0.0000
  13.4400         13.7416         13.7416         13.7416          0.0000          0.0000          0.0000
  13.4600         13.7214         13.7214         13.7214          0.0000          0.0000          0.0000
  13.4800         13.7078         13.7078         13.7078          0.0000          0.0000          0.0000
  13.5000         13.7002         13.7002         13.7002          0.0000          0.0000          0.0000
  13.5200         13.6977         13.6977         13.6977          0.0000          0.0000          0.0000
  13.5400         13.6993         13.6993         13.6993          0.0000          0.0000          0.0000
  13.5600         13.7037         13.7037         13.7037          0.0000          0.0000          0.0000
  13.5800         13.7095         13.7095         13.7095          0.0000          0.0000          0.0000
  13.6000         13.7156         13.7156         13.7156          0.0000          0.0000          0.0000
  13.6200         13.7205         13.7205         13.7205          0.0000          0.0000          0.0000
  13.6400         13.7231         13.7231         13.7231          0.0000          0.0000          0.0000
  13.6600         13.7223         13.7223         13.7223          0.0000          0.0000          0.0000
  13.6800         13.7174         13.7174         13.7174          0.0000          0.0000          0.0000
  13.7000         13.7078         13.7078         13.7078          0.0000          0.0000          0.0000
  13.7200         13.6932         13.6932         13.6932          0.0000          0.0000          0.0000
  13.7400         13.6733         13.6733         13.6733          0.0000          0.0000          0.0000
  13.7600         13.6483         13.6483         13.6483          0.0000          0.0000          0.0000
  13.7800         13.6184         13.6184         13.6184          0.0000          0.0000          0.0000
  13.8000         13.5842         13.5842         13.5842          0.0000          0.0000          0.0000
  13.8200         13.5463         13.5463         13.5463          0.0000          0.0000          0.0000
  13.8400         13.5053         13.5053         13.5053          0.0000          0.0000          0.0000
  13.8600         13.4622         13.4622         13.4622          0.0000          0.0000          0.0000
  13.8800         13.4178         13.4178         13.4178          0.0000          0.0000          0.0000
  13.9000         13.3729         13.3729         13.3729          0.0000          0.0000          0.0000
  13.9200         13.3285         13.3285         13.3285          0.0000          0.0000          0.0000
  13.9400         13.2854         13.2854         13.2854          0.0000          0.0000          0.0000
  13.9600         13.2444         13.2444         13.2444          0.0000          0.0000          0.0000
  13.9800         13.2062         13.2062         13.2062          0.0000          0.0000          0.0000
  14.0000         13.1712         13.1712         13.1712          0.0000          0.0000          0.0000
  14.0200         13.1399         13.1399         13.1399          0.0000          0.0000          0.0000
  14.0400         13.1126         13.1126         13.1126          0.0000          0.0000          0.0000
  14.0600         13.0892         13.0892         13.0892          0.0000          0.0000          0.0000
  14.0800         13.0695         13.0695         13.0695          0.0000          0.0000          0.0000
  14.1000         13.0534         13.0534         13.0534          0.0000          0.0000          0.0000
  14.1200         13.0402         13.0402         13.0402          0.0000          0.0000          0.0000
  14.1400         13.0294         13.0294         13.0294          0.0000          0.0000          0.0000
  14.1600         13.0203         13.0203         13.0203          0.0000          0.0000          0.0000
  14.1800         13.0122         13.0122         13.0122          0.0000          0.0000          0.0000
  14.2000         13.0045         13.0045         13.0045          0.0000          0.0000          0.0000
  14.2200         12.9964         12.9964         12.9964          0.0000          0.0000          0.0000
  14.2400         12.9878         12.9878         12.9878          0.0000          0.0000          0.0000
  14.2600         12.9782         12.9782         12.9782          0.0000          0.0000          0.0000
  14.2800         12.9676         12.9676         12.9676          0.0000          0.0000          0.0000
  14.3000         12.9562         12.9562         12.9562          0.0000          0.0000          0.0000
  14.3200         12.9443         12.9443         12.9443          0.0000          0.0000          0.0000
  14.3400         12.9323         12.9323         12.9323          0.0000          0.0000          0.0000
  14.3600         12.9209         12.9209         12.9209          0.0000          0.0000          0.0000
  14.3800         12.9105         12.9105         12.9105          0.0000          0.0000          0.0000
  14.4000         12.9017         12.9017         12.9017          0.0000          0.0000          0.0000
  14.4200         12.8950         12.8950         12.8950          0.0000          0.0000          0.0000
  14.4400         12.8907         12.8907         12.8907          0.0000          0.0000          0.0000
  14.4600         12.8888         12.8888         12.8888          0.0000          0.0000          0.0000
  14.4800         12.8893         12.8893         12.8893          0.0000          0.0000          0.0000
  14.5000         12.8920         12.8920         12.8920          0.0000          0.0000          0.0000
  14.5200         12.8964         12.8964         12.8964          0.0000          0.0000          0.0000
  14.5400         12.9021         12.9021         12.9021          0.0000          0.0000          0.0000
  14.5600         12.9084         12.9084         12.9084          0.0000          0.0000          0.0000
  14.5800         12.9147         12.9147         12.9147          0.0000          0.0000          0.0000
  14.6000         12.9205         12.9205         12.9205          0.0000          0.0000          0.0000
  14.6200         12.9254         12.9254         12.9254          0.0000          0.0000          0.0000
  14.6400         12.9288         12.9288         12.9288          0.0000          0.0000          0.0000
  14.6600         12.9307         12.9307         12.9307          0.0000          0.0000          0.0000
  14.6800         12.9307         12.9307         12.9307          0.0000          0.0000          0.0000
  14.7000         12.9289         12.9289         12.9289          0.0000          0.0000          0.0000
  14.7200         12.9251         12.9251         12.9251          0.0000          0.0000          0.0000
  14.7400         12.9195         12.9195         12.9195          0.0000          0.0000          0.0000
  14.7600         12.9121         12.9121         12.9121          0.0000          0.0000          0.0000
  14.7800         12.9031         12.9031         12.9031          0.0000          0.0000          0.0000
  14.8000         12.8925         12.8925         12.8925          0.0000          0.0000          0.0000
  14.8200         12.8806         12.8806         12.8806          0.0000          0.0000          0.0000
  14.8400         12.8675         12.8675         12.8675          0.0000          0.0000          0.0000
  14.8600         12.8534         12.8534         12.8534          0.0000          0.0000          0.0000
  14.8800         12.8384         12.8384         12.8384          0.0000          0.0000          0.0000
  14.9000         12.8230         12.8230         12.8230          0.0000          0.0000          0.0000
  14.9200         12.8073         12.8073         12.8073          0.0000          0.0000          0.0000
  14.9400         12.7916         12.7916         12.7916          0.0000          0.0000          0.0000
  14.9600         12.7764         12.7764         12.7764          0.0000          0.0000          0.0000
  14.9800         12.7620         12.7620         12.7620          0.0000          0.0000          0.0000
  15.0000         12.7488         12.7488         12.7488          0.0000          0.0000          0.0000
  15.0200         12.7371         12.7371         12.7371          0.0000          0.0000          0.0000
  15.0400         12.7270         12.7270         12.7270          0.0000          0.0000          0.0000
  15.0600         12.7189         12.7189         12.7189          0.0000          0.0000          0.0000
  15.0800         12.7126         12.7126         12.7126          0.0000          0.0000          0.0000
  15.1000         12.7084         12.7084         12.7084          0.0000          0.0000          0.0000
  15.1200         12.7058         12.7058         12.7058          0.0000          0.0000          0.0000
  15.1400         12.7048         12.7048         12.7048          0.0000          0.0000          0.0000
  15.1600         12.7048         12.7048         12.7048          0.0000          0.0000          0.0000
  15.1800         12.7055         12.7055         12.7055          0.0000          0.0000          0.0000
  15.2000         12.7063         12.7063         12.7063          0.0000          0.0000          0.0000
  15.2200         12.7066         12.7066         12.7066          0.0000          0.0000          0.0000
  15.2400         12.7058         12.7058         12.7058          0.0000          0.0000          0.0000
  15.2600         12.7033         12.7033         12.7033          0.0000          0.0000          0.0000
  15.2800         12.6986         12.6986         12.6986          0.0000          0.0000          0.0000
  15.3000         12.6912         12.6912         12.6912          0.0000          0.0000          0.0000
  15.3200         12.6807         12.6807         12.6807          0.0000          0.0000          0.0000
  15.3400         12.6670         12.6670         12.6670          0.0000          0.0000          0.0000
  15.3600         12.6498         12.6498         12.6498          0.0000          0.0000          0.0000
  15.3800         12.6293         12.6293         12.6293          0.0000          0.0000          0.0000
  15.4000         12.6058         12.6058         12.6058          0.0000          0.0000          0.0000
  15.4200         12.5796         12.5796         12.5796          0.0000          0.0000          0.0000
  15.4400         12.5513         12.5513         12.5513          0.0000          0.0000          0.0000
  15.4600         12.5215         12.5215         12.5215          0.0000          0.0000          0.0000
  15.4800         12.4909         12.4909         12.4909          0.0000          0.0000          0.0000
  15.5000         12.4605         12.4605         12.4605          0.0000          0.0000          0.0000
  15.5200         12.4307         12.4307         12.4307          0.0000          0.0000          0.0000
  15.5400         12.4024         12.4024         12.4024          0.0000          0.0000          0.0000
  15.5600         12.3761         12.3761         12.3761          0.0000          0.0000          0.0000
  15.5800         12.3521         12.3521         12.3521          0.0000          0.0000          0.0000
  15.6000         12.3306         12.3306         12.3306          0.0000          0.0000          0.0000
  15.6200         12.3115         12.3115         12.3115          0.0000          0.0000          0.0000
  15.6400         12.2945         12.2945         12.2945          0.0000          0.0000          0.0000
  15.6600         12.2791         12.2791         12.2791          0.0000          0.0000          0.0000
  15.6800         12.2647         12.2647         12.2647          0.0000          0.0000          0.0000
  15.7000         12.2504         12.2504         12.2504          0.0000          0.0000          0.0000
  15.7200         12.2354         12.2354         12.2354          0.0000          0.0000          0.0000
  15.7400         12.2187         12.2187         12.2187          0.0000          0.0000          0.0000
  15.7600         12.1995         12.1995         12.1995          0.0000          0.0000          0.0000
  15.7800         12.1772         12.1772         12.1772          0.0000          0.0000          0.0000
  15.8000         12.1510         12.1510         12.1510          0.0000          0.0000          0.0000
  15.8200         12.1208         12.1208         12.1208          0.0000          0.0000          0.0000
  15.8400         12.0863         12.0863         12.0863          0.0000          0.0000          0.0000
  15.8600         12.0477         12.0477         12.0477          0.0000          0.0000          0.0000
  15.8800         12.0053         12.0053         12.0053          0.0000          0.0000          0.0000
  15.9000         11.9597         11.9597         11.9597          0.0000          0.0000          0.0000
  15.9200         11.9118         11.9118         11.9118          0.0000          0.0000          0.0000
  15.9400         11.8624         11.8624         11.8624          0.0000          0.0000          0.0000
  15.9600         11.8126         11.8126         11.8126          0.0000          0.0000          0.0000
  15.9800         11.7634         11.7634         11.7634          0.0000          0.0000          0.0000
  16.0000         11.7158         11.7158         11.7158          0.0000          0.0000          0.0000
  16.0200         11.6707         11.6707         11.6707          0.0000          0.0000          0.0000
  16.0400         11.6290         11.6290         11.6290          0.0000          0.0000          0.0000
  16.0600         11.5913         11.5913         11.5913          0.0000          0.0000          0.0000
  16.0800         11.5581         11.5581         11.5581          0.0000          0.0000          0.0000
  16.1000         11.5296         11.5296         11.5296          0.0000          0.0000          0.0000
  16.1200         11.5060         11.5060         11.5060          0.0000          0.0000          0.0000
  16.1400         11.4871         11.4871         11.4871          0.0000          0.0000          0.0000
  16.1600         11.4728         11.4728         11.4728          0.0000          0.0000          0.0000
  16.1800         11.4626         11.4626         11.4626          0.0000          0.0000          0.0000
  16.2000         11.4562         11.4562         11.4562          0.0000          0.0000          0.0000
  16.2200         11.4530         11.4530         11.4530          0.0000          0.0000          0.0000
  16.2400         11.4524         11.4524         11.4524          0.0000          0.0000          0.0000
  16.2600         11.4537         11.4537         11.4537          0.0000          0.0000          0.0000
  16.2800         11.4563         11.4563         11.4563          0.0000          0.0000          0.0000
  16.3000         11.4594         11.4594         11.4594          0.0000          0.0000          0.0000
  16.3200         11.4625         11.4625         11.4625          0.0000          0.0000          0.0000
  16.3400         11.4649         11.4649         11.4649          0.0000          0.0000          0.0000
  16.3600         11.4659         11.4659         11.4659          0.0000          0.0000          0.0000
  16.3800         11.4649         11.4649         11.4649          0.0000          0.0000          0.0000
  16.4000         11.4614         11.4614         11.4614          0.0000          0.0000          0.0000
  16.4200         11.4550         11.4550         11.4550          0.0000          0.0000          0.0000
  16.4400         11.4452         11.4452         11.4452          0.0000          0.0000          0.0000
  16.4600         11.4318         11.4318         11.4318          0.0000          0.0000          0.0000
  16.4800         11.4145         11.4145         11.4145          0.0000          0.0000          0.0000
  16.5000         11.3932         11.3932         11.3932          0.0000          0.0000          0.0000
  16.5200         11.3682         11.3682         11.3682          0.0000          0.0000          0.0000
  16.5400         11.3394         11.3394         11.3394          0.0000          0.0000          0.0000
  16.5600         11.3072         11.3072         11.3072          0.0000          0.0000          0.0000
  16.5800         11.2720         11.2720         11.2720          0.0000          0.0000          0.0000
  16.6000         11.2343         11.2343         11.2343          0.0000          0.0000          0.0000
  16.6200         11.1945         11.1945         11.1945          0.0000          0.0000          0.0000
  16.6400         11.1535         11.1535         11.1535          0.0000          0.0000          0.0000
  16.6600         11.1117         11.1117         11.1117          0.0000          0.0000          0.0000
  16.6800         11.0699         11.0699         11.0699          0.0000          0.0000          0.0000
  16.7000         11.0287         11.0287         11.0287          0.0000          0.0000          0.0000
  16.7200         10.9888         10.9888         10.9888          0.0000          0.0000          0.0000
  16.7400         10.9507         10.9507         10.9507          0.0000          0.0000          0.0000
  16.7600         10.9149         10.9149         10.9149          0.0000          0.0000          0.0000
  16.7800         10.8819         10.8819         10.8819          0.0000          0.0000          0.0000
  16.8000         10.8521         10.8521         10.8521          0.0000          0.0000          0.0000
  16.8200         10.8257         10.8257         10.8257          0.0000          0.0000          0.0000
  16.8400         10.8030         10.8030         10.8030          0.0000          0.0000          0.0000
  16.8600         10.7838         10.7838         10.7838          0.0000          0.0000          0.0000
  16.8800         10.7683         10.7683         10.7683          0.0000          0.0000          0.0000
  16.9000         10.7561         10.7561         10.7561          0.0000          0.0000          0.0000
  16.9200         10.7470         10.7470         10.7470          0.0000          0.0000          0.0000
  16.9400         10.7404         10.7404         10.7404          0.0000          0.0000          0.0000
  16.9600         10.7358         10.7358         10.7358          0.0000          0.0000          0.0000
  16.9800         10.7326         10.7326         10.7326          0.0000          0.0000          0.0000
  17.0000         10.7299         10.7299         10.7299          0.0000          0.0000          0.0000
  17.0200         10.7272         10.7272         10.7272          0.0000          0.0000          0.0000
  17.0400         10.7236         10.7236         10.7236          0.0000          0.0000          0.0000
  17.0600         10.7184         10.7184         10.7184          0.0000          0.0000          0.0000
  17.0800         10.7112         10.7112         10.7112          0.0000          0.0000          0.0000
  17.1000         10.7014         10.7014         10.7014          0.0000          0.0000          0.0000
  17.1200         10.6887         10.6887         10.6887          0.0000          0.0000          0.0000
  17.1400         10.6730         10.6730         10.6730          0.0000          0.0000          0.0000
  17.1600         10.6543         10.6543         10.6543          0.0000          0.0000          0.0000
  17.1800         10.6329         10.6329         10.6329          0.0000          0.0000          0.0000
  17.2000         10.6089         10.6089         10.6089          0.0000          0.0000          0.0000
  17.2200         10.5830         10.5830         10.5830          0.0000          0.0000          0.0000
  17.2400         10.5558         10.5558         10.5558          0.0000          0.0000          0.0000
  17.2600         10.5277         10.5277         10.5277          0.0000          0.0000          0.0000
  17.2800         10.4996         10.4996         10.4996          0.0000          0.0000          0.0000
  17.3000         10.4719         10.4719         10.4719          0.0000          0.0000          0.0000
  17.3200         10.4454         10.4454         10.4454          0.0000          0.0000          0.0000
  17.3400         10.4204         10.4204         10.4204          0.0000          0.0000          0.0000
  17.3600         10.3973         10.3973         10.3973          0.0000          0.0000          0.0000
  17.3800         10.3763         10.3763         10.3763          0.0000          0.0000          0.0000
  17.4000         10.3576         10.3576         10.3576          0.0000          0.0000          0.0000
  17.4200         10.3411         10.3411         10.3411          0.0000          0.0000          0.0000
  17.4400         10.3268         10.3268         10.3268          0.0000          0.0000          0.0000
  17.4600         10.3143         10.3143         10.3143          0.0000          0.0000          0.0000
  17.4800         10.3036         10.3036         10.3036          0.0000          0.0000          0.0000
  17.5000         10.2943         10.2943         10.2943          0.0000          0.0000          0.0000
  17.5200         10.2860         10.2860         10.2860          0.0000          0.0000          0.0000
  17.5400         10.2784         10.2784         10.2784          0.0000          0.0000          0.0000
  17.5600         10.2713         10.2713         10.2713          0.0000          0.0000          0.0000
  17.5800         10.2643         10.2643         10.2643          0.0000          0.0000          0.0000
  17.6000         10.2572         10.2572         10.2572          0.0000          0.0000          0.0000
  17.6200         10.2498         10.2498         10.2498          0.0000          0.0000          0.0000
  17.6400         10.2419         10.2419         10.2419          0.0000          0.0000          0.0000
  17.6600         10.2333         10.2333         10.2333          0.0000          0.0000          0.0000
  17.6800         10.2241         10.2241         10.2241          0.0000          0.0000          0.0000
  17.7000         10.2141         10.2141         10.2141          0.0000          0.0000          0.0000
  17.7200         10.2034         10.2034         10.2034          0.0000          0.0000          0.0000
  17.7400         10.1921         10.1921         10.1921          0.0000          0.0000          0.0000
  17.7600         10.1801         10.1801         10.1801          0.0000          0.0000          0.0000
  17.7800         10.1678         10.1678         10.1678          0.0000          0.0000          0.0000
  17.8000         10.1553         10.1553         10.1553          0.0000          0.0000          0.0000
  17.8200         10.1428         10.1428         10.1428          0.0000          0.0000          0.0000
  17.8400         10.1308         10.1308         10.1308          0.0000          0.0000          0.0000
  17.8600         10.1195         10.1195         10.1195          0.0000          0.0000          0.0000
  17.8800         10.1094         10.1094         10.1094          0.0000          0.0000          0.0000
  17.9000         10.1010         10.1010         10.1010          0.0000          0.0000          0.0000
  17.9200         10.0947         10.0947         10.0947          0.0000          0.0000          0.0000
  17.9400         10.0909         10.0909         10.0909          0.0000          0.0000          0.0000
  17.9600         10.0901         10.0901         10.0901          0.0000          0.0000          0.0000
  17.9800         10.0925         10.0925         10.0925          0.0000          0.0000          0.0000
  18.0000         10.0984         10.0984         10.0984          0.0000          0.0000          0.0000
  18.0200         10.1079         10.1079         10.1079          0.0000          0.0000          0.0000
  18.0400         10.1211         10.1211         10.1211          0.0000          0.0000          0.0000
  18.0600         10.1377         10.1377         10.1377          0.0000          0.0000          0.0000
  18.0800         10.1577         10.1577         10.1577          0.0000          0.0000          0.0000
  18.1000         10.1806         10.1806         10.1806          0.0000          0.0000          0.0000
  18.1200         10.2060         10.2060         10.2060          0.0000          0.0000          0.0000
  18.1400         10.2337         10.2337         10.2337          0.0000          0.0000          0.0000
  18.1600         10.2629         10.2629         10.2629          0.0000          0.0000          0.0000
  18.1800         10.2934         10.2934         10.2934          0.0000          0.0000          0.0000
  18.2000         10.3246         10.3246         10.3246          0.0000          0.0000          0.0000
  18.2200         10.3561         10.3561         10.3561          0.0000          0.0000          0.0000
  18.2400         10.3874         10.3874         10.3874          0.0000          0.0000          0.0000
  18.2600         10.4179         10.4179         10.4179          0.0000          0.0000          0.0000
  18.2800         10.4474         10.4474         10.4474          0.0000          0.0000          0.0000
  18.3000         10.4752         10.4752         10.4752          0.0000          0.0000          0.0000
  18.3200         10.5011         10.5011         10.5011          0.0000          0.0000          0.0000
  18.3400         10.5243         10.5243         10.5243          0.0000          0.0000          0.0000
  18.3600         10.5447         10.5447         10.5447          0.0000          0.0000          0.0000
  18.3800         10.5616         10.5616         10.5616          0.0000          0.0000          0.0000
  18.4000         10.5747         10.5747         10.5747          0.0000          0.0000          0.0000
  18.4200         10.5836         10.5836         10.5836          0.0000          0.0000          0.0000
  18.4400         10.5882         10.5882         10.5882          0.0000          0.0000          0.0000
  18.4600         10.5883         10.5883         10.5883          0.0000          0.0000          0.0000
  18.4800         10.5839         10.5839         10.5839          0.0000          0.0000          0.0000
  18.5000         10.5751         10.5751         10.5751          0.0000          0.0000          0.0000
  18.5200         10.5623         10.5623         10.5623          0.0000          0.0000          0.0000
  18.5400         10.5459         10.5459         10.5459          0.0000          0.0000          0.0000
  18.5600         10.5265         10.5265         10.5265          0.0000          0.0000          0.0000
  18.5800         10.5048         10.5048         10.5048          0.0000          0.0000          0.0000
  18.6000         10.4819         10.4819         10.4819          0.0000          0.0000          0.0000
  18.6200         10.4586         10.4586         10.4586          0.0000          0.0000          0.0000
  18.6400         10.4360         10.4360         10.4360          0.0000          0.0000          0.0000
  18.6600         10.4152         10.4152         10.4152          0.0000          0.0000          0.0000
  18.6800         10.3972         10.3972         10.3972          0.0000          0.0000          0.0000
  18.7000         10.3830         10.3830         10.3830          0.0000          0.0000          0.0000
  18.7200         10.3734         10.3734         10.3734          0.0000          0.0000          0.0000
  18.7400         10.3692         10.3692         10.3692          0.0000          0.0000          0.0000
  18.7600         10.3708         10.3708         10.3708          0.0000          0.0000          0.0000
  18.7800         10.3786         10.3786         10.3786          0.0000          0.0000          0.0000
  18.8000         10.3925         10.3925         10.3925          0.0000          0.0000          0.0000
  18.8200         10.4125         10.4125         10.4125          0.0000          0.0000          0.0000
  18.8400         10.4381         10.4381         10.4381          0.0000          0.0000          0.0000
  18.8600         10.4688         10.4688         10.4688          0.0000          0.0000          0.0000
  18.8800         10.5038         10.5038         10.5038          0.0000          0.0000          0.0000
  18.9000         10.5424         10.5424         10.5424          0.0000          0.0000          0.0000
  18.9200         10.5835         10.5835         10.5835          0.0000          0.0000          0.0000
  18.9400         10.6264         10.6264         10.6264          0.0000          0.0000          0.0000
  18.9600         10.6699         10.6699         10.6699          0.0000          0.0000          0.0000
  18.9800         10.7134         10.7134         10.7134          0.0000          0.0000          0.0000
  19.0000         10.7560         10.7560         10.7560          0.0000          0.0000          0.0000
  19.0200         10.7971         10.7971         10.7971          0.0000          0.0000          0.0000
  19.0400         10.8361         10.8361         10.8361          0.0000          0.0000          0.0000
  19.0600         10.8727         10.8727         10.8727          0.0000          0.0000          0.0000
  19.0800         10.9065         10.9065         10.9065          0.0000          0.0000          0.0000
  19.1000         10.9373         10.9373         10.9373          0.0000          0.0000          0.0000
  19.1200         10.9650         10.9650         10.9650          0.0000          0.0000          0.0000
  19.1400         10.9896         10.9896         10.9896          0.0000          0.0000          0.0000
  19.1600         11.0110         11.0110         11.0110          0.0000          0.0000          0.0000
  19.1800         11.0291         11.0291         11.0291          0.0000          0.0000          0.0000
  19.2000         11.0440         11.0440         11.0440          0.0000          0.0000          0.0000
  19.2200         11.0555         11.0555         11.0555          0.0000          0.0000          0.0000
  19.2400         11.0636         11.0636         11.0636          0.0000          0.0000          0.0000
  19.2600         11.0681         11.0681         11.0681          0.0000          0.0000          0.0000
  19.2800         11.0690         11.0690         11.0690          0.0000          0.0000          0.0000
  19.3000         11.0662         11.0662         11.0662          0.0000          0.0000          0.0000
  19.3200         11.0597         11.0597         11.0597          0.0000          0.0000          0.0000
  19.3400         11.0498         11.0498         11.0498          0.0000          0.0000          0.0000
  19.3600         11.0366         11.0366         11.0366          0.0000          0.0000          0.0000
  19.3800         11.0206         11.0206         11.0206          0.0000          0.0000          0.0000
  19.4000         11.0024         11.0024         11.0024          0.0000          0.0000          0.0000
  19.4200         10.9828         10.9828         10.9828          0.0000          0.0000          0.0000
  19.4400         10.9627         10.9627         10.9627          0.0000          0.0000          0.0000
  19.4600         10.9433         10.9433         10.9433          0.0000          0.0000          0.0000
  19.4800         10.9257         10.9257         10.9257          0.0000          0.0000          0.0000
  19.5000         10.9110         10.9110         10.9110          0.0000          0.0000          0.0000
  19.5200         10.9004         10.9004         10.9004          0.0000          0.0000          0.0000
  19.5400         10.8948         10.8948         10.8948          0.0000          0.0000          0.0000
  19.5600         10.8949         10.8949         10.8949          0.0000          0.0000          0.0000
  19.5800         10.9012         10.9012         10.9012          0.0000          0.0000          0.0000
  19.6000         10.9140         10.9140         10.9140          0.0000          0.0000          0.0000
  19.6200         10.9332         10.9332         10.9332          0.0000          0.0000          0.0000
  19.6400         10.9584         10.9584         10.9584          0.0000          0.0000          0.0000
  19.6600         10.9893         10.9893         10.9893          0.0000          0.0000          0.0000
  19.6800         11.0250         11.0250         11.0250          0.0000          0.0000          0.0000
  19.7000         11.0649         11.0649         11.0649          0.0000          0.0000          0.0000
  19.7200         11.1083         11.1083         11.1083          0.0000          0.0000          0.0000
  19.7400         11.1545         11.1545         11.1545          0.0000          0.0000          0.0000
  19.7600         11.2030         11.2030         11.2030          0.0000          0.0000          0.0000
  19.7800         11.2536         11.2536         11.2536          0.0000          0.0000          0.0000
  19.8000         11.3061         11.3061         11.3061          0.0000          0.0000          0.0000
  19.8200         11.3604         11.3604         11.3604          0.0000          0.0000          0.0000
  19.8400         11.4167         11.4167         11.4167          0.0000          0.0000          0.0000
  19.8600         11.4747         11.4747         11.4747          0.0000          0.0000          0.0000
  19.8800         11.5341         11.5341         11.5341          0.0000          0.0000          0.0000
  19.9000         11.5938         11.5938         11.5938          0.0000          0.0000          0.0000
  19.9200         11.6510         11.6510         11.6510          0.0000          0.0000          0.0000
  19.9400         11.7005         11.7005         11.7005          0.0000          0.0000          0.0000
  19.9600         11.7332         11.7332         11.7332          0.0000          0.0000          0.0000
  19.9800         11.7349         11.7349         11.7349          0.0000          0.0000          0.0000
  20.0000         11.6876         11.6876         11.6876          0.0000          0.0000          0.0000
