### electron energy loss spectra
   0.0000          0.0000          0.0000          0.0000
   0.0200          0.0001          0.0001          0.0001
   0.0400          0.0003          0.0003          0.0003
   0.0600          0.0004          0.0004          0.0004
   0.0800          0.0005          0.0005          0.0005
   0.1000          0.0005          0.0005          0.0005
   0.1200          0.0006          0.0006          0.0006
   0.1400          0.0006          0.0006          0.0006
   0.1600          0.0006          0.0006          0.0006
   0.1800          0.0006          0.0006          0.0006
   0.2000          0.0006          0.0006          0.0006
   0.2200          0.0005          0.0005          0.0005
   0.2400          0.0005          0.0005          0.0005
   0.2600          0.0005          0.0005          0.0005
   0.2800          0.0005          0.0005          0.0005
   0.3000          0.0005          0.0005          0.0005
   0.3200          0.0005          0.0005          0.0005
   0.3400          0.0005          0.0005          0.0005
   0.3600          0.0005          0.0005          0.0005
   0.3800          0.0005          0.0005          0.0005
   0.4000          0.0005          0.0005          0.0005
   0.4200          0.0005          0.0005          0.0005
   0.4400          0.0005          0.0005          0.0005
   0.4600          0.0005          0.0005          0.0005
   0.4800          0.0005          0.0005          0.0005
   0.5000          0.0005          0.0005          0.0005
   0.5200          0.0006          0.0006          0.0006
   0.5400          0.0006          0.0006          0.0006
   0.5600          0.0006          0.0006          0.0006
   0.5800          0.0006          0.0006          0.0006
   0.6000          0.0006          0.0006          0.0006
   0.6200          0.0006          0.0006          0.0006
   0.6400          0.0007          0.0007          0.0007
   0.6600          0.0007          0.0007          0.0007
   0.6800          0.0007          0.0007          0.0007
   0.7000          0.0007          0.0007          0.0007
   0.7200          0.0007          0.0007          0.0007
   0.7400          0.0007          0.0007          0.0007
   0.7600          0.0008          0.0008          0.0008
   0.7800          0.0008          0.0008          0.0008
   0.8000          0.0008          0.0008          0.0008
   0.8200          0.0008          0.0008          0.0008
   0.8400          0.0008          0.0008          0.0008
   0.8600          0.0009          0.0009          0.0009
   0.8800          0.0009          0.0009          0.0009
   0.9000          0.0009          0.0009          0.0009
   0.9200          0.0009          0.0009          0.0009
   0.9400          0.0009          0.0009          0.0009
   0.9600          0.0010          0.0010          0.0010
   0.9800          0.0010          0.0010          0.0010
   1.0000          0.0010          0.0010          0.0010
   1.0200          0.0010          0.0010          0.0010
   1.0400          0.0010          0.0010          0.0010
   1.0600          0.0011          0.0011          0.0011
   1.0800          0.0011          0.0011          0.0011
   1.1000          0.0011          0.0011          0.0011
   1.1200          0.0011          0.0011          0.0011
   1.1400          0.0012          0.0012          0.0012
   1.1600          0.0012          0.0012          0.0012
   1.1800          0.0012          0.0012          0.0012
   1.2000          0.0012          0.0012          0.0012
   1.2200          0.0012          0.0012          0.0012
   1.2400          0.0013          0.0013          0.0013
   1.2600          0.0013          0.0013          0.0013
   1.2800          0.0013          0.0013          0.0013
   1.3000          0.0013          0.0013          0.0013
   1.3200          0.0014          0.0014          0.0014
   1.3400          0.0014          0.0014          0.0014
   1.3600          0.0014          0.0014          0.0014
   1.3800          0.0014          0.0014          0.0014
   1.4000          0.0015          0.0015          0.0015
   1.4200          0.0015          0.0015          0.0015
   1.4400          0.0015          0.0015          0.0015
   1.4600          0.0015          0.0015          0.0015
   1.4800          0.0016          0.0016          0.0016
   1.5000          0.0016          0.0016          0.0016
   1.5200          0.0016          0.0016          0.0016
   1.5400          0.0016          0.0016          0.0016
   1.5600          0.0017          0.0017          0.0017
   1.5800          0.0017          0.0017          0.0017
   1.6000          0.0017          0.0017          0.0017
   1.6200          0.0018          0.0018          0.0018
   1.6400          0.0018          0.0018          0.0018
   1.6600          0.0018          0.0018          0.0018
   1.6800          0.0018          0.0018          0.0018
   1.7000          0.0019          0.0019          0.0019
   1.7200          0.0019          0.0019          0.0019
   1.7400          0.0019          0.0019          0.0019
   1.7600          0.0020          0.0020          0.0020
   1.7800          0.0020          0.0020          0.0020
   1.8000          0.0020          0.0020          0.0020
   1.8200          0.0021          0.0021          0.0021
   1.8400          0.0021          0.0021          0.0021
   1.8600          0.0021          0.0021          0.0021
   1.8800          0.0022          0.0022          0.0022
   1.9000          0.0022          0.0022          0.0022
   1.9200          0.0022          0.0022          0.0022
   1.9400          0.0023          0.0023          0.0023
   1.9600          0.0023          0.0023          0.0023
   1.9800          0.0024          0.0024          0.0024
   2.0000          0.0024          0.0024          0.0024
   2.0200          0.0024          0.0024          0.0024
   2.0400          0.0025          0.0025          0.0025
   2.0600          0.0025          0.0025          0.0025
   2.0800          0.0026          0.0026          0.0026
   2.1000          0.0026          0.0026          0.0026
   2.1200          0.0027          0.0027          0.0027
   2.1400          0.0027          0.0027          0.0027
   2.1600          0.0028          0.0028          0.0028
   2.1800          0.0028          0.0028          0.0028
   2.2000          0.0029          0.0029          0.0029
   2.2200          0.0030          0.0030          0.0030
   2.2400          0.0030          0.0030          0.0030
   2.2600          0.0031          0.0031          0.0031
   2.2800          0.0032          0.0032          0.0032
   2.3000          0.0033          0.0033          0.0033
   2.3200          0.0034          0.0034          0.0034
   2.3400          0.0035          0.0035          0.0035
   2.3600          0.0036          0.0036          0.0036
   2.3800          0.0037          0.0037          0.0037
   2.4000          0.0038          0.0038          0.0038
   2.4200          0.0040          0.0040          0.0040
   2.4400          0.0042          0.0042          0.0042
   2.4600          0.0043          0.0043          0.0043
   2.4800          0.0046          0.0046          0.0046
   2.5000          0.0048          0.0048          0.0048
   2.5200          0.0051          0.0051          0.0051
   2.5400          0.0054          0.0054          0.0054
   2.5600          0.0058          0.0058          0.0058
   2.5800          0.0061          0.0061          0.0061
   2.6000          0.0066          0.0066          0.0066
   2.6200          0.0070          0.0070          0.0070
   2.6400          0.0075          0.0075          0.0075
   2.6600          0.0081          0.0081          0.0081
   2.6800          0.0087          0.0087          0.0087
   2.7000          0.0093          0.0093          0.0093
   2.7200          0.0099          0.0099          0.0099
   2.7400          0.0106          0.0106          0.0106
   2.7600          0.0113          0.0113          0.0113
   2.7800          0.0120          0.0120          0.0120
   2.8000          0.0127          0.0127          0.0127
   2.8200          0.0134          0.0134          0.0134
   2.8400          0.0140          0.0140          0.0140
   2.8600          0.0147          0.0147          0.0147
   2.8800          0.0153          0.0153          0.0153
   2.9000          0.0159          0.0159          0.0159
   2.9200          0.0165          0.0165          0.0165
   2.9400          0.0170          0.0170          0.0170
   2.9600          0.0175          0.0175          0.0175
   2.9800          0.0179          0.0179          0.0179
   3.0000          0.0183          0.0183          0.0183
   3.0200          0.0186          0.0186          0.0186
   3.0400          0.0189          0.0189          0.0189
   3.0600          0.0192          0.0192          0.0192
   3.0800          0.0195          0.0195          0.0195
   3.1000          0.0197          0.0197          0.0197
   3.1200          0.0200          0.0200          0.0200
   3.1400          0.0202          0.0202          0.0202
   3.1600          0.0204          0.0204          0.0204
   3.1800          0.0207          0.0207          0.0207
   3.2000          0.0209          0.0209          0.0209
   3.2200          0.0212          0.0212          0.0212
   3.2400          0.0214          0.0214          0.0214
   3.2600          0.0215          0.0215          0.0215
   3.2800          0.0217          0.0217          0.0217
   3.3000          0.0217          0.0217          0.0217
   3.3200          0.0217          0.0217          0.0217
   3.3400          0.0217          0.0217          0.0217
   3.3600          0.0216          0.0216          0.0216
   3.3800          0.0215          0.0215          0.0215
   3.4000          0.0214          0.0214          0.0214
   3.4200          0.0213          0.0213          0.0213
   3.4400          0.0212          0.0212          0.0212
   3.4600          0.0211          0.0211          0.0211
   3.4800          0.0210          0.0210          0.0210
   3.5000          0.0209          0.0209          0.0209
   3.5200          0.0208          0.0208          0.0208
   3.5400          0.0208          0.0208          0.0208
   3.5600          0.0207          0.0207          0.0207
   3.5800          0.0207          0.0207          0.0207
   3.6000          0.0207          0.0207          0.0207
   3.6200          0.0207          0.0207          0.0207
   3.6400          0.0208          0.0208          0.0208
   3.6600          0.0208          0.0208          0.0208
   3.6800          0.0209          0.0209          0.0209
   3.7000          0.0211          0.0211          0.0211
   3.7200          0.0212          0.0212          0.0212
   3.7400          0.0214          0.0214          0.0214
   3.7600          0.0217          0.0217          0.0217
   3.7800          0.0220          0.0220          0.0220
   3.8000          0.0223          0.0223          0.0223
   3.8200          0.0226          0.0226          0.0226
   3.8400          0.0230          0.0230          0.0230
   3.8600          0.0235          0.0235          0.0235
   3.8800          0.0239          0.0239          0.0239
   3.9000          0.0245          0.0245          0.0245
   3.9200          0.0250          0.0250          0.0250
   3.9400          0.0256          0.0256          0.0256
   3.9600          0.0261          0.0261          0.0261
   3.9800          0.0267          0.0267          0.0267
   4.0000          0.0273          0.0273          0.0273
   4.0200          0.0279          0.0279          0.0279
   4.0400          0.0285          0.0285          0.0285
   4.0600          0.0292          0.0292          0.0292
   4.0800          0.0299          0.0299          0.0299
   4.1000          0.0307          0.0307          0.0307
   4.1200          0.0316          0.0316          0.0316
   4.1400          0.0325          0.0325          0.0325
   4.1600          0.0336          0.0336          0.0336
   4.1800          0.0348          0.0348          0.0348
   4.2000          0.0360          0.0360          0.0360
   4.2200          0.0372          0.0372          0.0372
   4.2400          0.0383          0.0383          0.0383
   4.2600          0.0393          0.0393          0.0393
   4.2800          0.0400          0.0400          0.0400
   4.3000          0.0406          0.0406          0.0406
   4.3200          0.0409          0.0409          0.0409
   4.3400          0.0411          0.0411          0.0411
   4.3600          0.0412          0.0412          0.0412
   4.3800          0.0411          0.0411          0.0411
   4.4000          0.0411          0.0411          0.0411
   4.4200          0.0411          0.0411          0.0411
   4.4400          0.0411          0.0411          0.0411
   4.4600          0.0411          0.0411          0.0411
   4.4800          0.0413          0.0413          0.0413
   4.5000          0.0415          0.0415          0.0415
   4.5200          0.0417          0.0417          0.0417
   4.5400          0.0421          0.0421          0.0421
   4.5600          0.0425          0.0425          0.0425
   4.5800          0.0430          0.0430          0.0430
   4.6000          0.0435          0.0435          0.0435
   4.6200          0.0441          0.0441          0.0441
   4.6400          0.0447          0.0447          0.0447
   4.6600          0.0453          0.0453          0.0453
   4.6800          0.0459          0.0459          0.0459
   4.7000          0.0464          0.0464          0.0464
   4.7200          0.0469          0.0469          0.0469
   4.7400          0.0474          0.0474          0.0474
   4.7600          0.0477          0.0477          0.0477
   4.7800          0.0479          0.0479          0.0479
   4.8000          0.0479          0.0479          0.0479
   4.8200          0.0479          0.0479          0.0479
   4.8400          0.0477          0.0477          0.0477
   4.8600          0.0474          0.0474          0.0474
   4.8800          0.0471          0.0471          0.0471
   4.9000          0.0468          0.0468          0.0468
   4.9200          0.0465          0.0465          0.0465
   4.9400          0.0463          0.0463          0.0463
   4.9600          0.0461          0.0461          0.0461
   4.9800          0.0461          0.0461          0.0461
   5.0000          0.0462          0.0462          0.0462
   5.0200          0.0465          0.0465          0.0465
   5.0400          0.0469          0.0469          0.0469
   5.0600          0.0476          0.0476          0.0476
   5.0800          0.0484          0.0484          0.0484
   5.1000          0.0494          0.0494          0.0494
   5.1200          0.0506          0.0506          0.0506
   5.1400          0.0518          0.0518          0.0518
   5.1600          0.0531          0.0531          0.0531
   5.1800          0.0544          0.0544          0.0544
   5.2000          0.0555          0.0555          0.0555
   5.2200          0.0566          0.0566          0.0566
   5.2400          0.0574          0.0574          0.0574
   5.2600          0.0580          0.0580          0.0580
   5.2800          0.0584          0.0584          0.0584
   5.3000          0.0586          0.0586          0.0586
   5.3200          0.0586          0.0586          0.0586
   5.3400          0.0584          0.0584          0.0584
   5.3600          0.0580          0.0580          0.0580
   5.3800          0.0576          0.0576          0.0576
   5.4000          0.0571          0.0571          0.0571
   5.4200          0.0566          0.0566          0.0566
   5.4400          0.0562          0.0562          0.0562
   5.4600          0.0558          0.0558          0.0558
   5.4800          0.0555          0.0555          0.0555
   5.5000          0.0554          0.0554          0.0554
   5.5200          0.0554          0.0554          0.0554
   5.5400          0.0555          0.0555          0.0555
   5.5600          0.0557          0.0557          0.0557
   5.5800          0.0561          0.0561          0.0561
   5.6000          0.0566          0.0566          0.0566
   5.6200          0.0572          0.0572          0.0572
   5.6400          0.0577          0.0577          0.0577
   5.6600          0.0584          0.0584          0.0584
   5.6800          0.0590          0.0590          0.0590
   5.7000          0.0596          0.0596          0.0596
   5.7200          0.0603          0.0603          0.0603
   5.7400          0.0610          0.0610          0.0610
   5.7600          0.0618          0.0618          0.0618
   5.7800          0.0627          0.0627          0.0627
   5.8000          0.0637          0.0637          0.0637
   5.8200          0.0647          0.0647          0.0647
   5.8400          0.0658          0.0658          0.0658
   5.8600          0.0669          0.0669          0.0669
   5.8800          0.0679          0.0679          0.0679
   5.9000          0.0689          0.0689          0.0689
   5.9200          0.0696          0.0696          0.0696
   5.9400          0.0702          0.0702          0.0702
   5.9600          0.0705          0.0705          0.0705
   5.9800          0.0705          0.0705          0.0705
   6.0000          0.0703          0.0703          0.0703
   6.0200          0.0699          0.0699          0.0699
   6.0400          0.0694          0.0694          0.0694
   6.0600          0.0689          0.0689          0.0689
   6.0800          0.0683          0.0683          0.0683
   6.1000          0.0678          0.0678          0.0678
   6.1200          0.0674          0.0674          0.0674
   6.1400          0.0671          0.0671          0.0671
   6.1600          0.0669          0.0669          0.0669
   6.1800          0.0668          0.0668          0.0668
   6.2000          0.0668          0.0668          0.0668
   6.2200          0.0670          0.0670          0.0670
   6.2400          0.0673          0.0673          0.0673
   6.2600          0.0678          0.0678          0.0678
   6.2800          0.0684          0.0684          0.0684
   6.3000          0.0691          0.0691          0.0691
   6.3200          0.0700          0.0700          0.0700
   6.3400          0.0711          0.0711          0.0711
   6.3600          0.0724          0.0724          0.0724
   6.3800          0.0738          0.0738          0.0738
   6.4000          0.0753          0.0753          0.0753
   6.4200          0.0769          0.0769          0.0769
   6.4400          0.0785          0.0785          0.0785
   6.4600          0.0801          0.0801          0.0801
   6.4800          0.0817          0.0817          0.0817
   6.5000          0.0831          0.0831          0.0831
   6.5200          0.0844          0.0844          0.0844
   6.5400          0.0854          0.0854          0.0854
   6.5600          0.0863          0.0863          0.0863
   6.5800          0.0869          0.0869          0.0869
   6.6000          0.0872          0.0872          0.0872
   6.6200          0.0874          0.0874          0.0874
   6.6400          0.0875          0.0875          0.0875
   6.6600          0.0874          0.0874          0.0874
   6.6800          0.0873          0.0873          0.0873
   6.7000          0.0872          0.0872          0.0872
   6.7200          0.0871          0.0871          0.0871
   6.7400          0.0870          0.0870          0.0870
   6.7600          0.0869          0.0869          0.0869
   6.7800          0.0870          0.0870          0.0870
   6.8000          0.0872          0.0872          0.0872
   6.8200          0.0875          0.0875          0.0875
   6.8400          0.0880          0.0880          0.0880
   6.8600          0.0886          0.0886          0.0886
   6.8800          0.0894          0.0894          0.0894
   6.9000          0.0902          0.0902          0.0902
   6.9200          0.0912          0.0912          0.0912
   6.9400          0.0922          0.0922          0.0922
   6.9600          0.0933          0.0933          0.0933
   6.9800          0.0944          0.0944          0.0944
   7.0000          0.0956          0.0956          0.0956
   7.0200          0.0967          0.0967          0.0967
   7.0400          0.0979          0.0979          0.0979
   7.0600          0.0990          0.0990          0.0990
   7.0800          0.1001          0.1001          0.1001
   7.1000          0.1012          0.1012          0.1012
   7.1200          0.1024          0.1024          0.1024
   7.1400          0.1035          0.1035          0.1035
   7.1600          0.1045          0.1045          0.1045
   7.1800          0.1053          0.1053          0.1053
   7.2000          0.1060          0.1060          0.1060
   7.2200          0.1065          0.1065          0.1065
   7.2400          0.1067          0.1067          0.1067
   7.2600          0.1066          0.1066          0.1066
   7.2800          0.1063          0.1063          0.1063
   7.3000          0.1058          0.1058          0.1058
   7.3200          0.1052          0.1052          0.1052
   7.3400          0.1044          0.1044          0.1044
   7.3600          0.1037          0.1037          0.1037
   7.3800          0.1030          0.1030          0.1030
   7.4000          0.1023          0.1023          0.1023
   7.4200          0.1018          0.1018          0.1018
   7.4400          0.1014          0.1014          0.1014
   7.4600          0.1012          0.1012          0.1012
   7.4800          0.1012          0.1012          0.1012
   7.5000          0.1013          0.1013          0.1013
   7.5200          0.1016          0.1016          0.1016
   7.5400          0.1021          0.1021          0.1021
   7.5600          0.1028          0.1028          0.1028
   7.5800          0.1036          0.1036          0.1036
   7.6000          0.1045          0.1045          0.1045
   7.6200          0.1056          0.1056          0.1056
   7.6400          0.1067          0.1067          0.1067
   7.6600          0.1080          0.1080          0.1080
   7.6800          0.1093          0.1093          0.1093
   7.7000          0.1107          0.1107          0.1107
   7.7200          0.1122          0.1122          0.1122
   7.7400          0.1136          0.1136          0.1136
   7.7600          0.1150          0.1150          0.1150
   7.7800          0.1163          0.1163          0.1163
   7.8000          0.1175          0.1175          0.1175
   7.8200          0.1185          0.1185          0.1185
   7.8400          0.1194          0.1194          0.1194
   7.8600          0.1201          0.1201          0.1201
   7.8800          0.1206          0.1206          0.1206
   7.9000          0.1209          0.1209          0.1209
   7.9200          0.1211          0.1211          0.1211
   7.9400          0.1211          0.1211          0.1211
   7.9600          0.1211          0.1211          0.1211
   7.9800          0.1209          0.1209          0.1209
   8.0000          0.1207          0.1207          0.1207
   8.0200          0.1204          0.1204          0.1204
   8.0400          0.1201          0.1201          0.1201
   8.0600          0.1197          0.1197          0.1197
   8.0800          0.1193          0.1193          0.1193
   8.1000          0.1189          0.1189          0.1189
   8.1200          0.1187          0.1187          0.1187
   8.1400          0.1185          0.1185          0.1185
   8.1600          0.1185          0.1185          0.1185
   8.1800          0.1188          0.1188          0.1188
   8.2000          0.1193          0.1193          0.1193
   8.2200          0.1200          0.1200          0.1200
   8.2400          0.1209          0.1209          0.1209
   8.2600          0.1220          0.1220          0.1220
   8.2800          0.1232          0.1232          0.1232
   8.3000          0.1245          0.1245          0.1245
   8.3200          0.1256          0.1256          0.1256
   8.3400          0.1267          0.1267          0.1267
   8.3600          0.1276          0.1276          0.1276
   8.3800          0.1283          0.1283          0.1283
   8.4000          0.1289          0.1289          0.1289
   8.4200          0.1294          0.1294          0.1294
   8.4400          0.1299          0.1299          0.1299
   8.4600          0.1303          0.1303          0.1303
   8.4800          0.1307          0.1307          0.1307
   8.5000          0.1312          0.1312          0.1312
   8.5200          0.1318          0.1318          0.1318
   8.5400          0.1324          0.1324          0.1324
   8.5600          0.1332          0.1332          0.1332
   8.5800          0.1340          0.1340          0.1340
   8.6000          0.1349          0.1349          0.1349
   8.6200          0.1357          0.1357          0.1357
   8.6400          0.1365          0.1365          0.1365
   8.6600          0.1372          0.1372          0.1372
   8.6800          0.1376          0.1376          0.1376
   8.7000          0.1379          0.1379          0.1379
   8.7200          0.1380          0.1380          0.1380
   8.7400          0.1380          0.1380          0.1380
   8.7600          0.1379          0.1379          0.1379
   8.7800          0.1379          0.1379          0.1379
   8.8000          0.1379          0.1379          0.1379
   8.8200          0.1381          0.1381          0.1381
   8.8400          0.1384          0.1384          0.1384
   8.8600          0.1390          0.1390          0.1390
   8.8800          0.1396          0.1396          0.1396
   8.9000          0.1403          0.1403          0.1403
   8.9200          0.1410          0.1410          0.1410
   8.9400          0.1415          0.1415          0.1415
   8.9600          0.1420          0.1420          0.1420
   8.9800          0.1423          0.1423          0.1423
   9.0000          0.1425          0.1425          0.1425
   9.0200          0.1426          0.1426          0.1426
   9.0400          0.1427          0.1427          0.1427
   9.0600          0.1429          0.1429          0.1429
   9.0800          0.1432          0.1432          0.1432
   9.1000          0.1437          0.1437          0.1437
   9.1200          0.1444          0.1444          0.1444
   9.1400          0.1454          0.1454          0.1454
   9.1600          0.1467          0.1467          0.1467
   9.1800          0.1483          0.1483          0.1483
   9.2000          0.1501          0.1501          0.1501
   9.2200          0.1522          0.1522          0.1522
   9.2400          0.1545          0.1545          0.1545
   9.2600          0.1568          0.1568          0.1568
   9.2800          0.1592          0.1592          0.1592
   9.3000          0.1615          0.1615          0.1615
   9.3200          0.1637          0.1637          0.1637
   9.3400          0.1655          0.1655          0.1655
   9.3600          0.1670          0.1670          0.1670
   9.3800          0.1682          0.1682          0.1682
   9.4000          0.1689          0.1689          0.1689
   9.4200          0.1693          0.1693          0.1693
   9.4400          0.1694          0.1694          0.1694
   9.4600          0.1692          0.1692          0.1692
   9.4800          0.1690          0.1690          0.1690
   9.5000          0.1686          0.1686          0.1686
   9.5200          0.1683          0.1683          0.1683
   9.5400          0.1681          0.1681          0.1681
   9.5600          0.1680          0.1680          0.1680
   9.5800          0.1680          0.1680          0.1680
   9.6000          0.1681          0.1681          0.1681
   9.6200          0.1682          0.1682          0.1682
   9.6400          0.1684          0.1684          0.1684
   9.6600          0.1687          0.1687          0.1687
   9.6800          0.1690          0.1690          0.1690
   9.7000          0.1694          0.1694          0.1694
   9.7200          0.1700          0.1700          0.1700
   9.7400          0.1708          0.1708          0.1708
   9.7600          0.1719          0.1719          0.1719
   9.7800          0.1733          0.1733          0.1733
   9.8000          0.1751          0.1751          0.1751
   9.8200          0.1773          0.1773          0.1773
   9.8400          0.1798          0.1798          0.1798
   9.8600          0.1827          0.1827          0.1827
   9.8800          0.1858          0.1858          0.1858
   9.9000          0.1890          0.1890          0.1890
   9.9200          0.1923          0.1923          0.1923
   9.9400          0.1953          0.1953          0.1953
   9.9600          0.1981          0.1981          0.1981
   9.9800          0.2005          0.2005          0.2005
  10.0000          0.2024          0.2024          0.2024
  10.0200          0.2038          0.2038          0.2038
  10.0400          0.2047          0.2047          0.2047
  10.0600          0.2052          0.2052          0.2052
  10.0800          0.2054          0.2054          0.2054
  10.1000          0.2054          0.2054          0.2054
  10.1200          0.2053          0.2053          0.2053
  10.1400          0.2052          0.2052          0.2052
  10.1600          0.2053          0.2053          0.2053
  10.1800          0.2055          0.2055          0.2055
  10.2000          0.2059          0.2059          0.2059
  10.2200          0.2063          0.2063          0.2063
  10.2400          0.2069          0.2069          0.2069
  10.2600          0.2074          0.2074          0.2074
  10.2800          0.2079          0.2079          0.2079
  10.3000          0.2083          0.2083          0.2083
  10.3200          0.2086          0.2086          0.2086
  10.3400          0.2088          0.2088          0.2088
  10.3600          0.2090          0.2090          0.2090
  10.3800          0.2094          0.2094          0.2094
  10.4000          0.2100          0.2100          0.2100
  10.4200          0.2109          0.2109          0.2109
  10.4400          0.2123          0.2123          0.2123
  10.4600          0.2142          0.2142          0.2142
  10.4800          0.2166          0.2166          0.2166
  10.5000          0.2193          0.2193          0.2193
  10.5200          0.2225          0.2225          0.2225
  10.5400          0.2258          0.2258          0.2258
  10.5600          0.2293          0.2293          0.2293
  10.5800          0.2327          0.2327          0.2327
  10.6000          0.2361          0.2361          0.2361
  10.6200          0.2392          0.2392          0.2392
  10.6400          0.2420          0.2420          0.2420
  10.6600          0.2445          0.2445          0.2445
  10.6800          0.2466          0.2466          0.2466
  10.7000          0.2483          0.2483          0.2483
  10.7200          0.2497          0.2497          0.2497
  10.7400          0.2508          0.2508          0.2508
  10.7600          0.2516          0.2516          0.2516
  10.7800          0.2523          0.2523          0.2523
  10.8000          0.2529          0.2529          0.2529
  10.8200          0.2535          0.2535          0.2535
  10.8400          0.2542          0.2542          0.2542
  10.8600          0.2549          0.2549          0.2549
  10.8800          0.2557          0.2557          0.2557
  10.9000          0.2566          0.2566          0.2566
  10.9200          0.2576          0.2576          0.2576
  10.9400          0.2587          0.2587          0.2587
  10.9600          0.2598          0.2598          0.2598
  10.9800          0.2610          0.2610          0.2610
  11.0000          0.2623          0.2623          0.2623
  11.0200          0.2636          0.2636          0.2636
  11.0400          0.2650          0.2650          0.2650
  11.0600          0.2665          0.2665          0.2665
  11.0800          0.2680          0.2680          0.2680
  11.1000          0.2697          0.2697          0.2697
  11.1200          0.2715          0.2715          0.2715
  11.1400          0.2735          0.2735          0.2735
  11.1600          0.2758          0.2758          0.2758
  11.1800          0.2784          0.2784          0.2784
  11.2000          0.2813          0.2813          0.2813
  11.2200          0.2846          0.2846          0.2846
  11.2400          0.2881          0.2881          0.2881
  11.2600          0.2918          0.2918          0.2918
  11.2800          0.2955          0.2955          0.2955
  11.3000          0.2993          0.2993          0.2993
  11.3200          0.3030          0.3030          0.3030
  11.3400          0.3066          0.3066          0.3066
  11.3600          0.3100          0.3100          0.3100
  11.3800          0.3133          0.3133          0.3133
  11.4000          0.3165          0.3165          0.3165
  11.4200          0.3196          0.3196          0.3196
  11.4400          0.3226          0.3226          0.3226
  11.4600          0.3255          0.3255          0.3255
  11.4800          0.3283          0.3283          0.3283
  11.5000          0.3310          0.3310          0.3310
  11.5200          0.3336          0.3336          0.3336
  11.5400          0.3360          0.3360          0.3360
  11.5600          0.3384          0.3384          0.3384
  11.5800          0.3406          0.3406          0.3406
  11.6000          0.3427          0.3427          0.3427
  11.6200          0.3446          0.3446          0.3446
  11.6400          0.3463          0.3463          0.3463
  11.6600          0.3479          0.3479          0.3479
  11.6800          0.3494          0.3494          0.3494
  11.7000          0.3507          0.3507          0.3507
  11.7200          0.3519          0.3519          0.3519
  11.7400          0.3528          0.3528          0.3528
  11.7600          0.3535          0.3535          0.3535
  11.7800          0.3540          0.3540          0.3540
  11.8000          0.3542          0.3542          0.3542
  11.8200          0.3542          0.3542          0.3542
  11.8400          0.3541          0.3541          0.3541
  11.8600          0.3541          0.3541          0.3541
  11.8800          0.3543          0.3543          0.3543
  11.9000          0.3550          0.3550          0.3550
  11.9200          0.3562          0.3562          0.3562
  11.9400          0.3581          0.3581          0.3581
  11.9600          0.3609          0.3609          0.3609
  11.9800          0.3643          0.3643          0.3643
  12.0000          0.3685          0.3685          0.3685
  12.0200          0.3732          0.3732          0.3732
  12.0400          0.3783          0.3783          0.3783
  12.0600          0.3836          0.3836          0.3836
  12.0800          0.3889          0.3889          0.3889
  12.1000          0.3940          0.3940          0.3940
  12.1200          0.3989          0.3989          0.3989
  12.1400          0.4035          0.4035          0.4035
  12.1600          0.4078          0.4078          0.4078
  12.1800          0.4117          0.4117          0.4117
  12.2000          0.4152          0.4152          0.4152
  12.2200          0.4185          0.4185          0.4185
  12.2400          0.4216          0.4216          0.4216
  12.2600          0.4245          0.4245          0.4245
  12.2800          0.4274          0.4274          0.4274
  12.3000          0.4304          0.4304          0.4304
  12.3200          0.4335          0.4335          0.4335
  12.3400          0.4367          0.4367          0.4367
  12.3600          0.4401          0.4401          0.4401
  12.3800          0.4435          0.4435          0.4435
  12.4000          0.4469          0.4469          0.4469
  12.4200          0.4502          0.4502          0.4502
  12.4400          0.4533          0.4533          0.4533
  12.4600          0.4561          0.4561          0.4561
  12.4800          0.4586          0.4586          0.4586
  12.5000          0.4610          0.4610          0.4610
  12.5200          0.4632          0.4632          0.4632
  12.5400          0.4655          0.4655          0.4655
  12.5600          0.4680          0.4680          0.4680
  12.5800          0.4710          0.4710          0.4710
  12.6000          0.4744          0.4744          0.4744
  12.6200          0.4786          0.4786          0.4786
  12.6400          0.4835          0.4835          0.4835
  12.6600          0.4891          0.4891          0.4891
  12.6800          0.4953          0.4953          0.4953
  12.7000          0.5022          0.5022          0.5022
  12.7200          0.5095          0.5095          0.5095
  12.7400          0.5171          0.5171          0.5171
  12.7600          0.5249          0.5249          0.5249
  12.7800          0.5328          0.5328          0.5328
  12.8000          0.5405          0.5405          0.5405
  12.8200          0.5480          0.5480          0.5480
  12.8400          0.5551          0.5551          0.5551
  12.8600          0.5616          0.5616          0.5616
  12.8800          0.5677          0.5677          0.5677
  12.9000          0.5733          0.5733          0.5733
  12.9200          0.5785          0.5785          0.5785
  12.9400          0.5835          0.5835          0.5835
  12.9600          0.5884          0.5884          0.5884
  12.9800          0.5934          0.5934          0.5934
  13.0000          0.5987          0.5987          0.5987
  13.0200          0.6041          0.6041          0.6041
  13.0400          0.6099          0.6099          0.6099
  13.0600          0.6159          0.6159          0.6159
  13.0800          0.6220          0.6220          0.6220
  13.1000          0.6284          0.6284          0.6284
  13.1200          0.6348          0.6348          0.6348
  13.1400          0.6414          0.6414          0.6414
  13.1600          0.6481          0.6481          0.6481
  13.1800          0.6548          0.6548          0.6548
  13.2000          0.6616          0.6616          0.6616
  13.2200          0.6683          0.6683          0.6683
  13.2400          0.6748          0.6748          0.6748
  13.2600          0.6810          0.6810          0.6810
  13.2800          0.6867          0.6867          0.6867
  13.3000          0.6919          0.6919          0.6919
  13.3200          0.6966          0.6966          0.6966
  13.3400          0.7006          0.7006          0.7006
  13.3600          0.7042          0.7042          0.7042
  13.3800          0.7075          0.7075          0.7075
  13.4000          0.7105          0.7105          0.7105
  13.4200          0.7136          0.7136          0.7136
  13.4400          0.7169          0.7169          0.7169
  13.4600          0.7207          0.7207          0.7207
  13.4800          0.7252          0.7252          0.7252
  13.5000          0.7305          0.7305          0.7305
  13.5200          0.7368          0.7368          0.7368
  13.5400          0.7441          0.7441          0.7441
  13.5600          0.7525          0.7525          0.7525
  13.5800          0.7619          0.7619          0.7619
  13.6000          0.7722          0.7722          0.7722
  13.6200          0.7833          0.7833          0.7833
  13.6400          0.7953          0.7953          0.7953
  13.6600          0.8079          0.8079          0.8079
  13.6800          0.8210          0.8210          0.8210
  13.7000          0.8347          0.8347          0.8347
  13.7200          0.8487          0.8487          0.8487
  13.7400          0.8628          0.8628          0.8628
  13.7600          0.8769          0.8769          0.8769
  13.7800          0.8908          0.8908          0.8908
  13.8000          0.9042          0.9042          0.9042
  13.8200          0.9169          0.9169          0.9169
  13.8400          0.9287          0.9287          0.9287
  13.8600          0.9395          0.9395          0.9395
  13.8800          0.9492          0.9492          0.9492
  13.9000          0.9580          0.9580          0.9580
  13.9200          0.9659          0.9659          0.9659
  13.9400          0.9732          0.9732          0.9732
  13.9600          0.9802          0.9802          0.9802
  13.9800          0.9871          0.9871          0.9871
  14.0000          0.9943          0.9943          0.9943
  14.0200          1.0018          1.0018          1.0018
  14.0400          1.0100          1.0100          1.0100
  14.0600          1.0187          1.0187          1.0187
  14.0800          1.0281          1.0281          1.0281
  14.1000          1.0380          1.0380          1.0380
  14.1200          1.0483          1.0483          1.0483
  14.1400          1.0590          1.0590          1.0590
  14.1600          1.0701          1.0701          1.0701
  14.1800          1.0815          1.0815          1.0815
  14.2000          1.0933          1.0933          1.0933
  14.2200          1.1056          1.1056          1.1056
  14.2400          1.1186          1.1186          1.1186
  14.2600          1.1324          1.1324          1.1324
  14.2800          1.1469          1.1469          1.1469
  14.3000          1.1622          1.1622          1.1622
  14.3200          1.1783          1.1783          1.1783
  14.3400          1.1953          1.1953          1.1953
  14.3600          1.2129          1.2129          1.2129
  14.3800          1.2312          1.2312          1.2312
  14.4000          1.2501          1.2501          1.2501
  14.4200          1.2695          1.2695          1.2695
  14.4400          1.2892          1.2892          1.2892
  14.4600          1.3088          1.3088          1.3088
  14.4800          1.3280          1.3280          1.3280
  14.5000          1.3464          1.3464          1.3464
  14.5200          1.3635          1.3635          1.3635
  14.5400          1.3792          1.3792          1.3792
  14.5600          1.3934          1.3934          1.3934
  14.5800          1.4061          1.4061          1.4061
  14.6000          1.4177          1.4177          1.4177
  14.6200          1.4285          1.4285          1.4285
  14.6400          1.4390          1.4390          1.4390
  14.6600          1.4496          1.4496          1.4496
  14.6800          1.4604          1.4604          1.4604
  14.7000          1.4718          1.4718          1.4718
  14.7200          1.4835          1.4835          1.4835
  14.7400          1.4957          1.4957          1.4957
  14.7600          1.5081          1.5081          1.5081
  14.7800          1.5206          1.5206          1.5206
  14.8000          1.5332          1.5332          1.5332
  14.8200          1.5459          1.5459          1.5459
  14.8400          1.5588          1.5588          1.5588
  14.8600          1.5721          1.5721          1.5721
  14.8800          1.5859          1.5859          1.5859
  14.9000          1.6003          1.6003          1.6003
  14.9200          1.6154          1.6154          1.6154
  14.9400          1.6311          1.6311          1.6311
  14.9600          1.6477          1.6477          1.6477
  14.9800          1.6652          1.6652          1.6652
  15.0000          1.6839          1.6839          1.6839
  15.0200          1.7041          1.7041          1.7041
  15.0400          1.7261          1.7261          1.7261
  15.0600          1.7502          1.7502          1.7502
  15.0800          1.7765          1.7765          1.7765
  15.1000          1.8048          1.8048          1.8048
  15.1200          1.8349          1.8349          1.8349
  15.1400          1.8664          1.8664          1.8664
  15.1600          1.8989          1.8989          1.8989
  15.1800          1.9321          1.9321          1.9321
  15.2000          1.9658          1.9658          1.9658
  15.2200          1.9999          1.9999          1.9999
  15.2400          2.0347          2.0347          2.0347
  15.2600          2.0700          2.0700          2.0700
  15.2800          2.1060          2.1060          2.1060
  15.3000          2.1425          2.1425          2.1425
  15.3200          2.1791          2.1791          2.1791
  15.3400          2.2156          2.2156          2.2156
  15.3600          2.2518          2.2518          2.2518
  15.3800          2.2875          2.2875          2.2875
  15.4000          2.3230          2.3230          2.3230
  15.4200          2.3584          2.3584          2.3584
  15.4400          2.3940          2.3940          2.3940
  15.4600          2.4300          2.4300          2.4300
  15.4800          2.4667          2.4667          2.4667
  15.5000          2.5042          2.5042          2.5042
  15.5200          2.5423          2.5423          2.5423
  15.5400          2.5810          2.5810          2.5810
  15.5600          2.6199          2.6199          2.6199
  15.5800          2.6586          2.6586          2.6586
  15.6000          2.6966          2.6966          2.6966
  15.6200          2.7335          2.7335          2.7335
  15.6400          2.7687          2.7687          2.7687
  15.6600          2.8016          2.8016          2.8016
  15.6800          2.8324          2.8324          2.8324
  15.7000          2.8609          2.8609          2.8609
  15.7200          2.8879          2.8879          2.8879
  15.7400          2.9142          2.9142          2.9142
  15.7600          2.9411          2.9411          2.9411
  15.7800          2.9700          2.9700          2.9700
  15.8000          3.0023          3.0023          3.0023
  15.8200          3.0394          3.0394          3.0394
  15.8400          3.0823          3.0823          3.0823
  15.8600          3.1320          3.1320          3.1320
  15.8800          3.1890          3.1890          3.1890
  15.9000          3.2536          3.2536          3.2536
  15.9200          3.3254          3.3254          3.3254
  15.9400          3.4040          3.4040          3.4040
  15.9600          3.4884          3.4884          3.4884
  15.9800          3.5773          3.5773          3.5773
  16.0000          3.6691          3.6691          3.6691
  16.0200          3.7621          3.7621          3.7621
  16.0400          3.8547          3.8547          3.8547
  16.0600          3.9455          3.9455          3.9455
  16.0800          4.0330          4.0330          4.0330
  16.1000          4.1163          4.1163          4.1163
  16.1200          4.1951          4.1951          4.1951
  16.1400          4.2697          4.2697          4.2697
  16.1600          4.3409          4.3409          4.3409
  16.1800          4.4101          4.4101          4.4101
  16.2000          4.4794          4.4794          4.4794
  16.2200          4.5507          4.5507          4.5507
  16.2400          4.6258          4.6258          4.6258
  16.2600          4.7064          4.7064          4.7064
  16.2800          4.7930          4.7930          4.7930
  16.3000          4.8857          4.8857          4.8857
  16.3200          4.9841          4.9841          4.9841
  16.3400          5.0871          5.0871          5.0871
  16.3600          5.1936          5.1936          5.1936
  16.3800          5.3023          5.3023          5.3023
  16.4000          5.4121          5.4121          5.4121
  16.4200          5.5222          5.5222          5.5222
  16.4400          5.6321          5.6321          5.6321
  16.4600          5.7415          5.7415          5.7415
  16.4800          5.8509          5.8509          5.8509
  16.5000          5.9606          5.9606          5.9606
  16.5200          6.0720          6.0720          6.0720
  16.5400          6.1860          6.1860          6.1860
  16.5600          6.3036          6.3036          6.3036
  16.5800          6.4252          6.4252          6.4252
  16.6000          6.5504          6.5504          6.5504
  16.6200          6.6779          6.6779          6.6779
  16.6400          6.8049          6.8049          6.8049
  16.6600          6.9284          6.9284          6.9284
  16.6800          7.0447          7.0447          7.0447
  16.7000          7.1507          7.1507          7.1507
  16.7200          7.2440          7.2440          7.2440
  16.7400          7.3242          7.3242          7.3242
  16.7600          7.3923          7.3923          7.3923
  16.7800          7.4508          7.4508          7.4508
  16.8000          7.5035          7.5035          7.5035
  16.8200          7.5540          7.5540          7.5540
  16.8400          7.6058          7.6058          7.6058
  16.8600          7.6608          7.6608          7.6608
  16.8800          7.7200          7.7200          7.7200
  16.9000          7.7825          7.7825          7.7825
  16.9200          7.8469          7.8469          7.8469
  16.9400          7.9113          7.9113          7.9113
  16.9600          7.9739          7.9739          7.9739
  16.9800          8.0339          8.0339          8.0339
  17.0000          8.0911          8.0911          8.0911
  17.0200          8.1457          8.1457          8.1457
  17.0400          8.1979          8.1979          8.1979
  17.0600          8.2472          8.2472          8.2472
  17.0800          8.2924          8.2924          8.2924
  17.1000          8.3316          8.3316          8.3316
  17.1200          8.3624          8.3624          8.3624
  17.1400          8.3832          8.3832          8.3832
  17.1600          8.3933          8.3933          8.3933
  17.1800          8.3934          8.3934          8.3934
  17.2000          8.3859          8.3859          8.3859
  17.2200          8.3741          8.3741          8.3741
  17.2400          8.3619          8.3619          8.3619
  17.2600          8.3527          8.3527          8.3527
  17.2800          8.3489          8.3489          8.3489
  17.3000          8.3513          8.3513          8.3513
  17.3200          8.3587          8.3587          8.3587
  17.3400          8.3686          8.3686          8.3686
  17.3600          8.3765          8.3765          8.3765
  17.3800          8.3773          8.3773          8.3773
  17.4000          8.3662          8.3662          8.3662
  17.4200          8.3388          8.3388          8.3388
  17.4400          8.2923          8.2923          8.2923
  17.4600          8.2261          8.2261          8.2261
  17.4800          8.1410          8.1410          8.1410
  17.5000          8.0396          8.0396          8.0396
  17.5200          7.9253          7.9253          7.9253
  17.5400          7.8010          7.8010          7.8010
  17.5600          7.6691          7.6691          7.6691
  17.5800          7.5310          7.5310          7.5310
  17.6000          7.3865          7.3865          7.3865
  17.6200          7.2343          7.2343          7.2343
  17.6400          7.0728          7.0728          7.0728
  17.6600          6.9002          6.9002          6.9002
  17.6800          6.7158          6.7158          6.7158
  17.7000          6.5200          6.5200          6.5200
  17.7200          6.3149          6.3149          6.3149
  17.7400          6.1033          6.1033          6.1033
  17.7600          5.8894          5.8894          5.8894
  17.7800          5.6775          5.6775          5.6775
  17.8000          5.4713          5.4713          5.4713
  17.8200          5.2744          5.2744          5.2744
  17.8400          5.0891          5.0891          5.0891
  17.8600          4.9173          4.9173          4.9173
  17.8800          4.7599          4.7599          4.7599
  17.9000          4.6170          4.6170          4.6170
  17.9200          4.4891          4.4891          4.4891
  17.9400          4.3757          4.3757          4.3757
  17.9600          4.2767          4.2767          4.2767
  17.9800          4.1916          4.1916          4.1916
  18.0000          4.1196          4.1196          4.1196
  18.0200          4.0596          4.0596          4.0596
  18.0400          4.0096          4.0096          4.0096
  18.0600          3.9672          3.9672          3.9672
  18.0800          3.9295          3.9295          3.9295
  18.1000          3.8930          3.8930          3.8930
  18.1200          3.8540          3.8540          3.8540
  18.1400          3.8093          3.8093          3.8093
  18.1600          3.7560          3.7560          3.7560
  18.1800          3.6925          3.6925          3.6925
  18.2000          3.6181          3.6181          3.6181
  18.2200          3.5333          3.5333          3.5333
  18.2400          3.4399          3.4399          3.4399
  18.2600          3.3401          3.3401          3.3401
  18.2800          3.2367          3.2367          3.2367
  18.3000          3.1321          3.1321          3.1321
  18.3200          3.0281          3.0281          3.0281
  18.3400          2.9264          2.9264          2.9264
  18.3600          2.8277          2.8277          2.8277
  18.3800          2.7324          2.7324          2.7324
  18.4000          2.6405          2.6405          2.6405
  18.4200          2.5518          2.5518          2.5518
  18.4400          2.4659          2.4659          2.4659
  18.4600          2.3827          2.3827          2.3827
  18.4800          2.3019          2.3019          2.3019
  18.5000          2.2237          2.2237          2.2237
  18.5200          2.1483          2.1483          2.1483
  18.5400          2.0759          2.0759          2.0759
  18.5600          2.0072          2.0072          2.0072
  18.5800          1.9428          1.9428          1.9428
  18.6000          1.8834          1.8834          1.8834
  18.6200          1.8295          1.8295          1.8295
  18.6400          1.7819          1.7819          1.7819
  18.6600          1.7408          1.7408          1.7408
  18.6800          1.7064          1.7064          1.7064
  18.7000          1.6785          1.6785          1.6785
  18.7200          1.6565          1.6565          1.6565
  18.7400          1.6394          1.6394          1.6394
  18.7600          1.6259          1.6259          1.6259
  18.7800          1.6144          1.6144          1.6144
  18.8000          1.6032          1.6032          1.6032
  18.8200          1.5906          1.5906          1.5906
  18.8400          1.5751          1.5751          1.5751
  18.8600          1.5555          1.5555          1.5555
  18.8800          1.5311          1.5311          1.5311
  18.9000          1.5016          1.5016          1.5016
  18.9200          1.4676          1.4676          1.4676
  18.9400          1.4297          1.4297          1.4297
  18.9600          1.3892          1.3892          1.3892
  18.9800          1.3474          1.3474          1.3474
  19.0000          1.3055          1.3055          1.3055
  19.0200          1.2647          1.2647          1.2647
  19.0400          1.2257          1.2257          1.2257
  19.0600          1.1891          1.1891          1.1891
  19.0800          1.1555          1.1555          1.1555
  19.1000          1.1248          1.1248          1.1248
  19.1200          1.0974          1.0974          1.0974
  19.1400          1.0730          1.0730          1.0730
  19.1600          1.0517          1.0517          1.0517
  19.1800          1.0329          1.0329          1.0329
  19.2000          1.0164          1.0164          1.0164
  19.2200          1.0018          1.0018          1.0018
  19.2400          0.9884          0.9884          0.9884
  19.2600          0.9759          0.9759          0.9759
  19.2800          0.9638          0.9638          0.9638
  19.3000          0.9520          0.9520          0.9520
  19.3200          0.9402          0.9402          0.9402
  19.3400          0.9286          0.9286          0.9286
  19.3600          0.9175          0.9175          0.9175
  19.3800          0.9072          0.9072          0.9072
  19.4000          0.8983          0.8983          0.8983
  19.4200          0.8911          0.8911          0.8911
  19.4400          0.8860          0.8860          0.8860
  19.4600          0.8833          0.8833          0.8833
  19.4800          0.8829          0.8829          0.8829
  19.5000          0.8846          0.8846          0.8846
  19.5200          0.8879          0.8879          0.8879
  19.5400          0.8922          0.8922          0.8922
  19.5600          0.8968          0.8968          0.8968
  19.5800          0.9008          0.9008          0.9008
  19.6000          0.9034          0.9034          0.9034
  19.6200          0.9040          0.9040          0.9040
  19.6400          0.9019          0.9019          0.9019
  19.6600          0.8967          0.8967          0.8967
  19.6800          0.8882          0.8882          0.8882
  19.7000          0.8764          0.8764          0.8764
  19.7200          0.8616          0.8616          0.8616
  19.7400          0.8442          0.8442          0.8442
  19.7600          0.8245          0.8245          0.8245
  19.7800          0.8033          0.8033          0.8033
  19.8000          0.7811          0.7811          0.7811
  19.8200          0.7585          0.7585          0.7585
  19.8400          0.7357          0.7357          0.7357
  19.8600          0.7129          0.7129          0.7129
  19.8800          0.6900          0.6900          0.6900
  19.9000          0.6664          0.6664          0.6664
  19.9200          0.6413          0.6413          0.6413
  19.9400          0.6135          0.6135          0.6135
  19.9600          0.5813          0.5813          0.5813
  19.9800          0.5436          0.5436          0.5436
  20.0000          0.4999          0.4999          0.4999
