### electron energy loss spectra
   0.0000          0.0003          0.0003          0.0003
   0.0200          0.0005          0.0005          0.0005
   0.0400          0.0011          0.0011          0.0011
   0.0600          0.0016          0.0016          0.0016
   0.0800          0.0021          0.0021          0.0021
   0.1000          0.0027          0.0027          0.0027
   0.1200          0.0032          0.0032          0.0032
   0.1400          0.0037          0.0037          0.0037
   0.1600          0.0043          0.0043          0.0043
   0.1800          0.0048          0.0048          0.0048
   0.2000          0.0053          0.0053          0.0053
   0.2200          0.0059          0.0059          0.0059
   0.2400          0.0064          0.0064          0.0064
   0.2600          0.0070          0.0070          0.0070
   0.2800          0.0075          0.0075          0.0075
   0.3000          0.0081          0.0081          0.0081
   0.3200          0.0086          0.0086          0.0086
   0.3400          0.0092          0.0092          0.0092
   0.3600          0.0098          0.0098          0.0098
   0.3800          0.0103          0.0103          0.0103
   0.4000          0.0109          0.0109          0.0109
   0.4200          0.0115          0.0115          0.0115
   0.4400          0.0121          0.0121          0.0121
   0.4600          0.0127          0.0127          0.0127
   0.4800          0.0133          0.0133          0.0133
   0.5000          0.0139          0.0139          0.0139
   0.5200          0.0145          0.0145          0.0145
   0.5400          0.0151          0.0151          0.0151
   0.5600          0.0157          0.0157          0.0157
   0.5800          0.0164          0.0164          0.0164
   0.6000          0.0170          0.0170          0.0170
   0.6200          0.0176          0.0176          0.0176
   0.6400          0.0183          0.0183          0.0183
   0.6600          0.0190          0.0190          0.0190
   0.6800          0.0196          0.0196          0.0196
   0.7000          0.0203          0.0203          0.0203
   0.7200          0.0210          0.0210          0.0210
   0.7400          0.0217          0.0217          0.0217
   0.7600          0.0224          0.0224          0.0224
   0.7800          0.0232          0.0232          0.0232
   0.8000          0.0239          0.0239          0.0239
   0.8200          0.0246          0.0246          0.0246
   0.8400          0.0254          0.0254          0.0254
   0.8600          0.0262          0.0262          0.0262
   0.8800          0.0270          0.0270          0.0270
   0.9000          0.0278          0.0278          0.0278
   0.9200          0.0286          0.0286          0.0286
   0.9400          0.0294          0.0294          0.0294
   0.9600          0.0303          0.0303          0.0303
   0.9800          0.0311          0.0311          0.0311
   1.0000          0.0320          0.0320          0.0320
   1.0200          0.0329          0.0329          0.0329
   1.0400          0.0338          0.0338          0.0338
   1.0600          0.0347          0.0347          0.0347
   1.0800          0.0357          0.0357          0.0357
   1.1000          0.0366          0.0366          0.0366
   1.1200          0.0376          0.0376          0.0376
   1.1400          0.0386          0.0386          0.0386
   1.1600          0.0396          0.0396          0.0396
   1.1800          0.0407          0.0407          0.0407
   1.2000          0.0417          0.0417          0.0417
   1.2200          0.0427          0.0427          0.0427
   1.2400          0.0438          0.0438          0.0438
   1.2600          0.0449          0.0449          0.0449
   1.2800          0.0459          0.0459          0.0459
   1.3000          0.0469          0.0469          0.0469
   1.3200          0.0480          0.0480          0.0480
   1.3400          0.0490          0.0490          0.0490
   1.3600          0.0499          0.0499          0.0499
   1.3800          0.0508          0.0508          0.0508
   1.4000          0.0517          0.0517          0.0517
   1.4200          0.0525          0.0525          0.0525
   1.4400          0.0533          0.0533          0.0533
   1.4600          0.0541          0.0541          0.0541
   1.4800          0.0549          0.0549          0.0549
   1.5000          0.0558          0.0558          0.0558
   1.5200          0.0567          0.0567          0.0567
   1.5400          0.0576          0.0576          0.0576
   1.5600          0.0587          0.0587          0.0587
   1.5800          0.0598          0.0598          0.0598
   1.6000          0.0609          0.0609          0.0609
   1.6200          0.0620          0.0620          0.0620
   1.6400          0.0631          0.0631          0.0631
   1.6600          0.0641          0.0641          0.0641
   1.6800          0.0650          0.0650          0.0650
   1.7000          0.0657          0.0657          0.0657
   1.7200          0.0662          0.0662          0.0662
   1.7400          0.0666          0.0666          0.0666
   1.7600          0.0669          0.0669          0.0669
   1.7800          0.0670          0.0670          0.0670
   1.8000          0.0671          0.0671          0.0671
   1.8200          0.0671          0.0671          0.0671
   1.8400          0.0670          0.0670          0.0670
   1.8600          0.0668          0.0668          0.0668
   1.8800          0.0666          0.0666          0.0666
   1.9000          0.0664          0.0664          0.0664
   1.9200          0.0662          0.0662          0.0662
   1.9400          0.0659          0.0659          0.0659
   1.9600          0.0657          0.0657          0.0657
   1.9800          0.0654          0.0654          0.0654
   2.0000          0.0652          0.0652          0.0652
   2.0200          0.0649          0.0649          0.0649
   2.0400          0.0647          0.0647          0.0647
   2.0600          0.0644          0.0644          0.0644
   2.0800          0.0642          0.0642          0.0642
   2.1000          0.0639          0.0639          0.0639
   2.1200          0.0635          0.0635          0.0635
   2.1400          0.0632          0.0632          0.0632
   2.1600          0.0628          0.0628          0.0628
   2.1800          0.0625          0.0625          0.0625
   2.2000          0.0622          0.0622          0.0622
   2.2200          0.0621          0.0621          0.0621
   2.2400          0.0620          0.0620          0.0620
   2.2600          0.0622          0.0622          0.0622
   2.2800          0.0625          0.0625          0.0625
   2.3000          0.0630          0.0630          0.0630
   2.3200          0.0637          0.0637          0.0637
   2.3400          0.0645          0.0645          0.0645
   2.3600          0.0655          0.0655          0.0655
   2.3800          0.0665          0.0665          0.0665
   2.4000          0.0677          0.0677          0.0677
   2.4200          0.0689          0.0689          0.0689
   2.4400          0.0701          0.0701          0.0701
   2.4600          0.0713          0.0713          0.0713
   2.4800          0.0723          0.0723          0.0723
   2.5000          0.0732          0.0732          0.0732
   2.5200          0.0739          0.0739          0.0739
   2.5400          0.0743          0.0743          0.0743
   2.5600          0.0745          0.0745          0.0745
   2.5800          0.0745          0.0745          0.0745
   2.6000          0.0743          0.0743          0.0743
   2.6200          0.0740          0.0740          0.0740
   2.6400          0.0737          0.0737          0.0737
   2.6600          0.0734          0.0734          0.0734
   2.6800          0.0731          0.0731          0.0731
   2.7000          0.0729          0.0729          0.0729
   2.7200          0.0728          0.0728          0.0728
   2.7400          0.0728          0.0728          0.0728
   2.7600          0.0731          0.0731          0.0731
   2.7800          0.0735          0.0735          0.0735
   2.8000          0.0741          0.0741          0.0741
   2.8200          0.0748          0.0748          0.0748
   2.8400          0.0758          0.0758          0.0758
   2.8600          0.0769          0.0769          0.0769
   2.8800          0.0782          0.0782          0.0782
   2.9000          0.0795          0.0795          0.0795
   2.9200          0.0808          0.0808          0.0808
   2.9400          0.0820          0.0820          0.0820
   2.9600          0.0832          0.0832          0.0832
   2.9800          0.0841          0.0841          0.0841
   3.0000          0.0849          0.0849          0.0849
   3.0200          0.0854          0.0854          0.0854
   3.0400          0.0858          0.0858          0.0858
   3.0600          0.0861          0.0861          0.0861
   3.0800          0.0862          0.0862          0.0862
   3.1000          0.0864          0.0864          0.0864
   3.1200          0.0866          0.0866          0.0866
   3.1400          0.0869          0.0869          0.0869
   3.1600          0.0872          0.0872          0.0872
   3.1800          0.0876          0.0876          0.0876
   3.2000          0.0880          0.0880          0.0880
   3.2200          0.0885          0.0885          0.0885
   3.2400          0.0890          0.0890          0.0890
   3.2600          0.0894          0.0894          0.0894
   3.2800          0.0898          0.0898          0.0898
   3.3000          0.0901          0.0901          0.0901
   3.3200          0.0902          0.0902          0.0902
   3.3400          0.0903          0.0903          0.0903
   3.3600          0.0903          0.0903          0.0903
   3.3800          0.0904          0.0904          0.0904
   3.4000          0.0904          0.0904          0.0904
   3.4200          0.0906          0.0906          0.0906
   3.4400          0.0909          0.0909          0.0909
   3.4600          0.0914          0.0914          0.0914
   3.4800          0.0919          0.0919          0.0919
   3.5000          0.0925          0.0925          0.0925
   3.5200          0.0932          0.0932          0.0932
   3.5400          0.0938          0.0938          0.0938
   3.5600          0.0943          0.0943          0.0943
   3.5800          0.0948          0.0948          0.0948
   3.6000          0.0952          0.0952          0.0952
   3.6200          0.0957          0.0957          0.0957
   3.6400          0.0963          0.0963          0.0963
   3.6600          0.0970          0.0970          0.0970
   3.6800          0.0978          0.0978          0.0978
   3.7000          0.0989          0.0989          0.0989
   3.7200          0.1002          0.1002          0.1002
   3.7400          0.1016          0.1016          0.1016
   3.7600          0.1032          0.1032          0.1032
   3.7800          0.1049          0.1049          0.1049
   3.8000          0.1065          0.1065          0.1065
   3.8200          0.1081          0.1081          0.1081
   3.8400          0.1096          0.1096          0.1096
   3.8600          0.1110          0.1110          0.1110
   3.8800          0.1122          0.1122          0.1122
   3.9000          0.1133          0.1133          0.1133
   3.9200          0.1142          0.1142          0.1142
   3.9400          0.1148          0.1148          0.1148
   3.9600          0.1152          0.1152          0.1152
   3.9800          0.1154          0.1154          0.1154
   4.0000          0.1153          0.1153          0.1153
   4.0200          0.1151          0.1151          0.1151
   4.0400          0.1149          0.1149          0.1149
   4.0600          0.1149          0.1149          0.1149
   4.0800          0.1151          0.1151          0.1151
   4.1000          0.1156          0.1156          0.1156
   4.1200          0.1165          0.1165          0.1165
   4.1400          0.1177          0.1177          0.1177
   4.1600          0.1192          0.1192          0.1192
   4.1800          0.1210          0.1210          0.1210
   4.2000          0.1231          0.1231          0.1231
   4.2200          0.1252          0.1252          0.1252
   4.2400          0.1273          0.1273          0.1273
   4.2600          0.1294          0.1294          0.1294
   4.2800          0.1314          0.1314          0.1314
   4.3000          0.1333          0.1333          0.1333
   4.3200          0.1350          0.1350          0.1350
   4.3400          0.1364          0.1364          0.1364
   4.3600          0.1377          0.1377          0.1377
   4.3800          0.1388          0.1388          0.1388
   4.4000          0.1397          0.1397          0.1397
   4.4200          0.1404          0.1404          0.1404
   4.4400          0.1411          0.1411          0.1411
   4.4600          0.1418          0.1418          0.1418
   4.4800          0.1425          0.1425          0.1425
   4.5000          0.1433          0.1433          0.1433
   4.5200          0.1443          0.1443          0.1443
   4.5400          0.1454          0.1454          0.1454
   4.5600          0.1466          0.1466          0.1466
   4.5800          0.1480          0.1480          0.1480
   4.6000          0.1495          0.1495          0.1495
   4.6200          0.1511          0.1511          0.1511
   4.6400          0.1526          0.1526          0.1526
   4.6600          0.1541          0.1541          0.1541
   4.6800          0.1554          0.1554          0.1554
   4.7000          0.1566          0.1566          0.1566
   4.7200          0.1576          0.1576          0.1576
   4.7400          0.1584          0.1584          0.1584
   4.7600          0.1589          0.1589          0.1589
   4.7800          0.1592          0.1592          0.1592
   4.8000          0.1593          0.1593          0.1593
   4.8200          0.1592          0.1592          0.1592
   4.8400          0.1592          0.1592          0.1592
   4.8600          0.1592          0.1592          0.1592
   4.8800          0.1593          0.1593          0.1593
   4.9000          0.1595          0.1595          0.1595
   4.9200          0.1599          0.1599          0.1599
   4.9400          0.1604          0.1604          0.1604
   4.9600          0.1609          0.1609          0.1609
   4.9800          0.1615          0.1615          0.1615
   5.0000          0.1620          0.1620          0.1620
   5.0200          0.1625          0.1625          0.1625
   5.0400          0.1629          0.1629          0.1629
   5.0600          0.1633          0.1633          0.1633
   5.0800          0.1638          0.1638          0.1638
   5.1000          0.1644          0.1644          0.1644
   5.1200          0.1650          0.1650          0.1650
   5.1400          0.1657          0.1657          0.1657
   5.1600          0.1664          0.1664          0.1664
   5.1800          0.1670          0.1670          0.1670
   5.2000          0.1676          0.1676          0.1676
   5.2200          0.1681          0.1681          0.1681
   5.2400          0.1686          0.1686          0.1686
   5.2600          0.1690          0.1690          0.1690
   5.2800          0.1694          0.1694          0.1694
   5.3000          0.1698          0.1698          0.1698
   5.3200          0.1704          0.1704          0.1704
   5.3400          0.1709          0.1709          0.1709
   5.3600          0.1716          0.1716          0.1716
   5.3800          0.1723          0.1723          0.1723
   5.4000          0.1730          0.1730          0.1730
   5.4200          0.1737          0.1737          0.1737
   5.4400          0.1743          0.1743          0.1743
   5.4600          0.1750          0.1750          0.1750
   5.4800          0.1756          0.1756          0.1756
   5.5000          0.1764          0.1764          0.1764
   5.5200          0.1772          0.1772          0.1772
   5.5400          0.1781          0.1781          0.1781
   5.5600          0.1792          0.1792          0.1792
   5.5800          0.1804          0.1804          0.1804
   5.6000          0.1818          0.1818          0.1818
   5.6200          0.1833          0.1833          0.1833
   5.6400          0.1848          0.1848          0.1848
   5.6600          0.1863          0.1863          0.1863
   5.6800          0.1877          0.1877          0.1877
   5.7000          0.1890          0.1890          0.1890
   5.7200          0.1900          0.1900          0.1900
   5.7400          0.1908          0.1908          0.1908
   5.7600          0.1912          0.1912          0.1912
   5.7800          0.1914          0.1914          0.1914
   5.8000          0.1913          0.1913          0.1913
   5.8200          0.1910          0.1910          0.1910
   5.8400          0.1906          0.1906          0.1906
   5.8600          0.1901          0.1901          0.1901
   5.8800          0.1896          0.1896          0.1896
   5.9000          0.1890          0.1890          0.1890
   5.9200          0.1884          0.1884          0.1884
   5.9400          0.1878          0.1878          0.1878
   5.9600          0.1871          0.1871          0.1871
   5.9800          0.1864          0.1864          0.1864
   6.0000          0.1857          0.1857          0.1857
   6.0200          0.1850          0.1850          0.1850
   6.0400          0.1844          0.1844          0.1844
   6.0600          0.1839          0.1839          0.1839
   6.0800          0.1835          0.1835          0.1835
   6.1000          0.1833          0.1833          0.1833
   6.1200          0.1831          0.1831          0.1831
   6.1400          0.1828          0.1828          0.1828
   6.1600          0.1824          0.1824          0.1824
   6.1800          0.1819          0.1819          0.1819
   6.2000          0.1810          0.1810          0.1810
   6.2200          0.1800          0.1800          0.1800
   6.2400          0.1787          0.1787          0.1787
   6.2600          0.1773          0.1773          0.1773
   6.2800          0.1757          0.1757          0.1757
   6.3000          0.1741          0.1741          0.1741
   6.3200          0.1724          0.1724          0.1724
   6.3400          0.1707          0.1707          0.1707
   6.3600          0.1688          0.1688          0.1688
   6.3800          0.1669          0.1669          0.1669
   6.4000          0.1649          0.1649          0.1649
   6.4200          0.1629          0.1629          0.1629
   6.4400          0.1609          0.1609          0.1609
   6.4600          0.1591          0.1591          0.1591
   6.4800          0.1575          0.1575          0.1575
   6.5000          0.1562          0.1562          0.1562
   6.5200          0.1553          0.1553          0.1553
   6.5400          0.1548          0.1548          0.1548
   6.5600          0.1548          0.1548          0.1548
   6.5800          0.1552          0.1552          0.1552
   6.6000          0.1559          0.1559          0.1559
   6.6200          0.1570          0.1570          0.1570
   6.6400          0.1584          0.1584          0.1584
   6.6600          0.1599          0.1599          0.1599
   6.6800          0.1614          0.1614          0.1614
   6.7000          0.1631          0.1631          0.1631
   6.7200          0.1646          0.1646          0.1646
   6.7400          0.1661          0.1661          0.1661
   6.7600          0.1675          0.1675          0.1675
   6.7800          0.1688          0.1688          0.1688
   6.8000          0.1698          0.1698          0.1698
   6.8200          0.1706          0.1706          0.1706
   6.8400          0.1712          0.1712          0.1712
   6.8600          0.1716          0.1716          0.1716
   6.8800          0.1718          0.1718          0.1718
   6.9000          0.1719          0.1719          0.1719
   6.9200          0.1719          0.1719          0.1719
   6.9400          0.1720          0.1720          0.1720
   6.9600          0.1722          0.1722          0.1722
   6.9800          0.1726          0.1726          0.1726
   7.0000          0.1731          0.1731          0.1731
   7.0200          0.1737          0.1737          0.1737
   7.0400          0.1745          0.1745          0.1745
   7.0600          0.1754          0.1754          0.1754
   7.0800          0.1763          0.1763          0.1763
   7.1000          0.1773          0.1773          0.1773
   7.1200          0.1783          0.1783          0.1783
   7.1400          0.1793          0.1793          0.1793
   7.1600          0.1803          0.1803          0.1803
   7.1800          0.1812          0.1812          0.1812
   7.2000          0.1820          0.1820          0.1820
   7.2200          0.1828          0.1828          0.1828
   7.2400          0.1835          0.1835          0.1835
   7.2600          0.1842          0.1842          0.1842
   7.2800          0.1847          0.1847          0.1847
   7.3000          0.1851          0.1851          0.1851
   7.3200          0.1853          0.1853          0.1853
   7.3400          0.1853          0.1853          0.1853
   7.3600          0.1851          0.1851          0.1851
   7.3800          0.1849          0.1849          0.1849
   7.4000          0.1845          0.1845          0.1845
   7.4200          0.1841          0.1841          0.1841
   7.4400          0.1836          0.1836          0.1836
   7.4600          0.1832          0.1832          0.1832
   7.4800          0.1828          0.1828          0.1828
   7.5000          0.1824          0.1824          0.1824
   7.5200          0.1821          0.1821          0.1821
   7.5400          0.1819          0.1819          0.1819
   7.5600          0.1817          0.1817          0.1817
   7.5800          0.1817          0.1817          0.1817
   7.6000          0.1819          0.1819          0.1819
   7.6200          0.1822          0.1822          0.1822
   7.6400          0.1827          0.1827          0.1827
   7.6600          0.1835          0.1835          0.1835
   7.6800          0.1843          0.1843          0.1843
   7.7000          0.1854          0.1854          0.1854
   7.7200          0.1866          0.1866          0.1866
   7.7400          0.1879          0.1879          0.1879
   7.7600          0.1893          0.1893          0.1893
   7.7800          0.1906          0.1906          0.1906
   7.8000          0.1920          0.1920          0.1920
   7.8200          0.1933          0.1933          0.1933
   7.8400          0.1944          0.1944          0.1944
   7.8600          0.1955          0.1955          0.1955
   7.8800          0.1965          0.1965          0.1965
   7.9000          0.1974          0.1974          0.1974
   7.9200          0.1983          0.1983          0.1983
   7.9400          0.1992          0.1992          0.1992
   7.9600          0.2002          0.2002          0.2002
   7.9800          0.2012          0.2012          0.2012
   8.0000          0.2024          0.2024          0.2024
   8.0200          0.2036          0.2036          0.2036
   8.0400          0.2047          0.2047          0.2047
   8.0600          0.2058          0.2058          0.2058
   8.0800          0.2068          0.2068          0.2068
   8.1000          0.2076          0.2076          0.2076
   8.1200          0.2083          0.2083          0.2083
   8.1400          0.2088          0.2088          0.2088
   8.1600          0.2093          0.2093          0.2093
   8.1800          0.2097          0.2097          0.2097
   8.2000          0.2102          0.2102          0.2102
   8.2200          0.2108          0.2108          0.2108
   8.2400          0.2115          0.2115          0.2115
   8.2600          0.2125          0.2125          0.2125
   8.2800          0.2137          0.2137          0.2137
   8.3000          0.2151          0.2151          0.2151
   8.3200          0.2167          0.2167          0.2167
   8.3400          0.2184          0.2184          0.2184
   8.3600          0.2202          0.2202          0.2202
   8.3800          0.2220          0.2220          0.2220
   8.4000          0.2237          0.2237          0.2237
   8.4200          0.2252          0.2252          0.2252
   8.4400          0.2265          0.2265          0.2265
   8.4600          0.2275          0.2275          0.2275
   8.4800          0.2281          0.2281          0.2281
   8.5000          0.2283          0.2283          0.2283
   8.5200          0.2281          0.2281          0.2281
   8.5400          0.2276          0.2276          0.2276
   8.5600          0.2268          0.2268          0.2268
   8.5800          0.2259          0.2259          0.2259
   8.6000          0.2249          0.2249          0.2249
   8.6200          0.2239          0.2239          0.2239
   8.6400          0.2230          0.2230          0.2230
   8.6600          0.2223          0.2223          0.2223
   8.6800          0.2218          0.2218          0.2218
   8.7000          0.2216          0.2216          0.2216
   8.7200          0.2217          0.2217          0.2217
   8.7400          0.2221          0.2221          0.2221
   8.7600          0.2230          0.2230          0.2230
   8.7800          0.2241          0.2241          0.2241
   8.8000          0.2256          0.2256          0.2256
   8.8200          0.2274          0.2274          0.2274
   8.8400          0.2294          0.2294          0.2294
   8.8600          0.2314          0.2314          0.2314
   8.8800          0.2334          0.2334          0.2334
   8.9000          0.2354          0.2354          0.2354
   8.9200          0.2372          0.2372          0.2372
   8.9400          0.2389          0.2389          0.2389
   8.9600          0.2404          0.2404          0.2404
   8.9800          0.2417          0.2417          0.2417
   9.0000          0.2429          0.2429          0.2429
   9.0200          0.2439          0.2439          0.2439
   9.0400          0.2448          0.2448          0.2448
   9.0600          0.2456          0.2456          0.2456
   9.0800          0.2462          0.2462          0.2462
   9.1000          0.2467          0.2467          0.2467
   9.1200          0.2472          0.2472          0.2472
   9.1400          0.2477          0.2477          0.2477
   9.1600          0.2483          0.2483          0.2483
   9.1800          0.2490          0.2490          0.2490
   9.2000          0.2499          0.2499          0.2499
   9.2200          0.2511          0.2511          0.2511
   9.2400          0.2527          0.2527          0.2527
   9.2600          0.2546          0.2546          0.2546
   9.2800          0.2569          0.2569          0.2569
   9.3000          0.2595          0.2595          0.2595
   9.3200          0.2623          0.2623          0.2623
   9.3400          0.2651          0.2651          0.2651
   9.3600          0.2679          0.2679          0.2679
   9.3800          0.2705          0.2705          0.2705
   9.4000          0.2728          0.2728          0.2728
   9.4200          0.2747          0.2747          0.2747
   9.4400          0.2762          0.2762          0.2762
   9.4600          0.2772          0.2772          0.2772
   9.4800          0.2778          0.2778          0.2778
   9.5000          0.2781          0.2781          0.2781
   9.5200          0.2781          0.2781          0.2781
   9.5400          0.2780          0.2780          0.2780
   9.5600          0.2779          0.2779          0.2779
   9.5800          0.2780          0.2780          0.2780
   9.6000          0.2785          0.2785          0.2785
   9.6200          0.2795          0.2795          0.2795
   9.6400          0.2809          0.2809          0.2809
   9.6600          0.2830          0.2830          0.2830
   9.6800          0.2856          0.2856          0.2856
   9.7000          0.2888          0.2888          0.2888
   9.7200          0.2923          0.2923          0.2923
   9.7400          0.2962          0.2962          0.2962
   9.7600          0.3002          0.3002          0.3002
   9.7800          0.3041          0.3041          0.3041
   9.8000          0.3079          0.3079          0.3079
   9.8200          0.3113          0.3113          0.3113
   9.8400          0.3143          0.3143          0.3143
   9.8600          0.3167          0.3167          0.3167
   9.8800          0.3187          0.3187          0.3187
   9.9000          0.3201          0.3201          0.3201
   9.9200          0.3212          0.3212          0.3212
   9.9400          0.3218          0.3218          0.3218
   9.9600          0.3221          0.3221          0.3221
   9.9800          0.3223          0.3223          0.3223
  10.0000          0.3223          0.3223          0.3223
  10.0200          0.3222          0.3222          0.3222
  10.0400          0.3222          0.3222          0.3222
  10.0600          0.3223          0.3223          0.3223
  10.0800          0.3227          0.3227          0.3227
  10.1000          0.3235          0.3235          0.3235
  10.1200          0.3249          0.3249          0.3249
  10.1400          0.3269          0.3269          0.3269
  10.1600          0.3295          0.3295          0.3295
  10.1800          0.3327          0.3327          0.3327
  10.2000          0.3366          0.3366          0.3366
  10.2200          0.3409          0.3409          0.3409
  10.2400          0.3456          0.3456          0.3456
  10.2600          0.3503          0.3503          0.3503
  10.2800          0.3548          0.3548          0.3548
  10.3000          0.3589          0.3589          0.3589
  10.3200          0.3622          0.3622          0.3622
  10.3400          0.3647          0.3647          0.3647
  10.3600          0.3662          0.3662          0.3662
  10.3800          0.3668          0.3668          0.3668
  10.4000          0.3664          0.3664          0.3664
  10.4200          0.3654          0.3654          0.3654
  10.4400          0.3640          0.3640          0.3640
  10.4600          0.3623          0.3623          0.3623
  10.4800          0.3607          0.3607          0.3607
  10.5000          0.3593          0.3593          0.3593
  10.5200          0.3582          0.3582          0.3582
  10.5400          0.3575          0.3575          0.3575
  10.5600          0.3571          0.3571          0.3571
  10.5800          0.3569          0.3569          0.3569
  10.6000          0.3569          0.3569          0.3569
  10.6200          0.3569          0.3569          0.3569
  10.6400          0.3568          0.3568          0.3568
  10.6600          0.3566          0.3566          0.3566
  10.6800          0.3564          0.3564          0.3564
  10.7000          0.3562          0.3562          0.3562
  10.7200          0.3562          0.3562          0.3562
  10.7400          0.3566          0.3566          0.3566
  10.7600          0.3574          0.3574          0.3574
  10.7800          0.3587          0.3587          0.3587
  10.8000          0.3605          0.3605          0.3605
  10.8200          0.3626          0.3626          0.3626
  10.8400          0.3650          0.3650          0.3650
  10.8600          0.3673          0.3673          0.3673
  10.8800          0.3696          0.3696          0.3696
  10.9000          0.3717          0.3717          0.3717
  10.9200          0.3737          0.3737          0.3737
  10.9400          0.3756          0.3756          0.3756
  10.9600          0.3775          0.3775          0.3775
  10.9800          0.3795          0.3795          0.3795
  11.0000          0.3815          0.3815          0.3815
  11.0200          0.3836          0.3836          0.3836
  11.0400          0.3856          0.3856          0.3856
  11.0600          0.3875          0.3875          0.3875
  11.0800          0.3891          0.3891          0.3891
  11.1000          0.3905          0.3905          0.3905
  11.1200          0.3916          0.3916          0.3916
  11.1400          0.3926          0.3926          0.3926
  11.1600          0.3937          0.3937          0.3937
  11.1800          0.3949          0.3949          0.3949
  11.2000          0.3964          0.3964          0.3964
  11.2200          0.3981          0.3981          0.3981
  11.2400          0.4000          0.4000          0.4000
  11.2600          0.4020          0.4020          0.4020
  11.2800          0.4038          0.4038          0.4038
  11.3000          0.4052          0.4052          0.4052
  11.3200          0.4059          0.4059          0.4059
  11.3400          0.4059          0.4059          0.4059
  11.3600          0.4049          0.4049          0.4049
  11.3800          0.4029          0.4029          0.4029
  11.4000          0.4001          0.4001          0.4001
  11.4200          0.3966          0.3966          0.3966
  11.4400          0.3926          0.3926          0.3926
  11.4600          0.3885          0.3885          0.3885
  11.4800          0.3845          0.3845          0.3845
  11.5000          0.3807          0.3807          0.3807
  11.5200          0.3773          0.3773          0.3773
  11.5400          0.3745          0.3745          0.3745
  11.5600          0.3721          0.3721          0.3721
  11.5800          0.3701          0.3701          0.3701
  11.6000          0.3683          0.3683          0.3683
  11.6200          0.3667          0.3667          0.3667
  11.6400          0.3650          0.3650          0.3650
  11.6600          0.3633          0.3633          0.3633
  11.6800          0.3615          0.3615          0.3615
  11.7000          0.3598          0.3598          0.3598
  11.7200          0.3583          0.3583          0.3583
  11.7400          0.3570          0.3570          0.3570
  11.7600          0.3560          0.3560          0.3560
  11.7800          0.3554          0.3554          0.3554
  11.8000          0.3553          0.3553          0.3553
  11.8200          0.3554          0.3554          0.3554
  11.8400          0.3559          0.3559          0.3559
  11.8600          0.3566          0.3566          0.3566
  11.8800          0.3576          0.3576          0.3576
  11.9000          0.3589          0.3589          0.3589
  11.9200          0.3606          0.3606          0.3606
  11.9400          0.3627          0.3627          0.3627
  11.9600          0.3652          0.3652          0.3652
  11.9800          0.3681          0.3681          0.3681
  12.0000          0.3712          0.3712          0.3712
  12.0200          0.3745          0.3745          0.3745
  12.0400          0.3778          0.3778          0.3778
  12.0600          0.3810          0.3810          0.3810
  12.0800          0.3838          0.3838          0.3838
  12.1000          0.3864          0.3864          0.3864
  12.1200          0.3886          0.3886          0.3886
  12.1400          0.3905          0.3905          0.3905
  12.1600          0.3923          0.3923          0.3923
  12.1800          0.3940          0.3940          0.3940
  12.2000          0.3955          0.3955          0.3955
  12.2200          0.3969          0.3969          0.3969
  12.2400          0.3981          0.3981          0.3981
  12.2600          0.3991          0.3991          0.3991
  12.2800          0.3995          0.3995          0.3995
  12.3000          0.3995          0.3995          0.3995
  12.3200          0.3990          0.3990          0.3990
  12.3400          0.3980          0.3980          0.3980
  12.3600          0.3966          0.3966          0.3966
  12.3800          0.3951          0.3951          0.3951
  12.4000          0.3937          0.3937          0.3937
  12.4200          0.3925          0.3925          0.3925
  12.4400          0.3917          0.3917          0.3917
  12.4600          0.3914          0.3914          0.3914
  12.4800          0.3917          0.3917          0.3917
  12.5000          0.3926          0.3926          0.3926
  12.5200          0.3940          0.3940          0.3940
  12.5400          0.3958          0.3958          0.3958
  12.5600          0.3977          0.3977          0.3977
  12.5800          0.3998          0.3998          0.3998
  12.6000          0.4018          0.4018          0.4018
  12.6200          0.4036          0.4036          0.4036
  12.6400          0.4053          0.4053          0.4053
  12.6600          0.4069          0.4069          0.4069
  12.6800          0.4083          0.4083          0.4083
  12.7000          0.4096          0.4096          0.4096
  12.7200          0.4109          0.4109          0.4109
  12.7400          0.4120          0.4120          0.4120
  12.7600          0.4128          0.4128          0.4128
  12.7800          0.4133          0.4133          0.4133
  12.8000          0.4132          0.4132          0.4132
  12.8200          0.4127          0.4127          0.4127
  12.8400          0.4115          0.4115          0.4115
  12.8600          0.4099          0.4099          0.4099
  12.8800          0.4079          0.4079          0.4079
  12.9000          0.4056          0.4056          0.4056
  12.9200          0.4032          0.4032          0.4032
  12.9400          0.4010          0.4010          0.4010
  12.9600          0.3989          0.3989          0.3989
  12.9800          0.3970          0.3970          0.3970
  13.0000          0.3953          0.3953          0.3953
  13.0200          0.3937          0.3937          0.3937
  13.0400          0.3921          0.3921          0.3921
  13.0600          0.3903          0.3903          0.3903
  13.0800          0.3884          0.3884          0.3884
  13.1000          0.3863          0.3863          0.3863
  13.1200          0.3841          0.3841          0.3841
  13.1400          0.3820          0.3820          0.3820
  13.1600          0.3800          0.3800          0.3800
  13.1800          0.3785          0.3785          0.3785
  13.2000          0.3775          0.3775          0.3775
  13.2200          0.3773          0.3773          0.3773
  13.2400          0.3779          0.3779          0.3779
  13.2600          0.3794          0.3794          0.3794
  13.2800          0.3819          0.3819          0.3819
  13.3000          0.3852          0.3852          0.3852
  13.3200          0.3893          0.3893          0.3893
  13.3400          0.3940          0.3940          0.3940
  13.3600          0.3992          0.3992          0.3992
  13.3800          0.4044          0.4044          0.4044
  13.4000          0.4095          0.4095          0.4095
  13.4200          0.4141          0.4141          0.4141
  13.4400          0.4180          0.4180          0.4180
  13.4600          0.4209          0.4209          0.4209
  13.4800          0.4229          0.4229          0.4229
  13.5000          0.4239          0.4239          0.4239
  13.5200          0.4242          0.4242          0.4242
  13.5400          0.4240          0.4240          0.4240
  13.5600          0.4236          0.4236          0.4236
  13.5800          0.4233          0.4233          0.4233
  13.6000          0.4233          0.4233          0.4233
  13.6200          0.4236          0.4236          0.4236
  13.6400          0.4244          0.4244          0.4244
  13.6600          0.4254          0.4254          0.4254
  13.6800          0.4264          0.4264          0.4264
  13.7000          0.4273          0.4273          0.4273
  13.7200          0.4279          0.4279          0.4279
  13.7400          0.4279          0.4279          0.4279
  13.7600          0.4273          0.4273          0.4273
  13.7800          0.4261          0.4261          0.4261
  13.8000          0.4245          0.4245          0.4245
  13.8200          0.4227          0.4227          0.4227
  13.8400          0.4208          0.4208          0.4208
  13.8600          0.4190          0.4190          0.4190
  13.8800          0.4174          0.4174          0.4174
  13.9000          0.4162          0.4162          0.4162
  13.9200          0.4152          0.4152          0.4152
  13.9400          0.4146          0.4146          0.4146
  13.9600          0.4142          0.4142          0.4142
  13.9800          0.4142          0.4142          0.4142
  14.0000          0.4145          0.4145          0.4145
  14.0200          0.4152          0.4152          0.4152
  14.0400          0.4165          0.4165          0.4165
  14.0600          0.4182          0.4182          0.4182
  14.0800          0.4205          0.4205          0.4205
  14.1000          0.4233          0.4233          0.4233
  14.1200          0.4267          0.4267          0.4267
  14.1400          0.4304          0.4304          0.4304
  14.1600          0.4345          0.4345          0.4345
  14.1800          0.4389          0.4389          0.4389
  14.2000          0.4436          0.4436          0.4436
  14.2200          0.4485          0.4485          0.4485
  14.2400          0.4538          0.4538          0.4538
  14.2600          0.4594          0.4594          0.4594
  14.2800          0.4653          0.4653          0.4653
  14.3000          0.4715          0.4715          0.4715
  14.3200          0.4781          0.4781          0.4781
  14.3400          0.4847          0.4847          0.4847
  14.3600          0.4913          0.4913          0.4913
  14.3800          0.4974          0.4974          0.4974
  14.4000          0.5024          0.5024          0.5024
  14.4200          0.5060          0.5060          0.5060
  14.4400          0.5078          0.5078          0.5078
  14.4600          0.5074          0.5074          0.5074
  14.4800          0.5050          0.5050          0.5050
  14.5000          0.5007          0.5007          0.5007
  14.5200          0.4951          0.4951          0.4951
  14.5400          0.4884          0.4884          0.4884
  14.5600          0.4812          0.4812          0.4812
  14.5800          0.4739          0.4739          0.4739
  14.6000          0.4668          0.4668          0.4668
  14.6200          0.4602          0.4602          0.4602
  14.6400          0.4543          0.4543          0.4543
  14.6600          0.4493          0.4493          0.4493
  14.6800          0.4453          0.4453          0.4453
  14.7000          0.4423          0.4423          0.4423
  14.7200          0.4404          0.4404          0.4404
  14.7400          0.4396          0.4396          0.4396
  14.7600          0.4399          0.4399          0.4399
  14.7800          0.4410          0.4410          0.4410
  14.8000          0.4430          0.4430          0.4430
  14.8200          0.4456          0.4456          0.4456
  14.8400          0.4488          0.4488          0.4488
  14.8600          0.4525          0.4525          0.4525
  14.8800          0.4566          0.4566          0.4566
  14.9000          0.4612          0.4612          0.4612
  14.9200          0.4661          0.4661          0.4661
  14.9400          0.4716          0.4716          0.4716
  14.9600          0.4775          0.4775          0.4775
  14.9800          0.4839          0.4839          0.4839
  15.0000          0.4907          0.4907          0.4907
  15.0200          0.4977          0.4977          0.4977
  15.0400          0.5049          0.5049          0.5049
  15.0600          0.5119          0.5119          0.5119
  15.0800          0.5185          0.5185          0.5185
  15.1000          0.5244          0.5244          0.5244
  15.1200          0.5296          0.5296          0.5296
  15.1400          0.5339          0.5339          0.5339
  15.1600          0.5373          0.5373          0.5373
  15.1800          0.5402          0.5402          0.5402
  15.2000          0.5424          0.5424          0.5424
  15.2200          0.5442          0.5442          0.5442
  15.2400          0.5456          0.5456          0.5456
  15.2600          0.5466          0.5466          0.5466
  15.2800          0.5470          0.5470          0.5470
  15.3000          0.5468          0.5468          0.5468
  15.3200          0.5458          0.5458          0.5458
  15.3400          0.5440          0.5440          0.5440
  15.3600          0.5414          0.5414          0.5414
  15.3800          0.5383          0.5383          0.5383
  15.4000          0.5348          0.5348          0.5348
  15.4200          0.5313          0.5313          0.5313
  15.4400          0.5281          0.5281          0.5281
  15.4600          0.5254          0.5254          0.5254
  15.4800          0.5235          0.5235          0.5235
  15.5000          0.5224          0.5224          0.5224
  15.5200          0.5220          0.5220          0.5220
  15.5400          0.5222          0.5222          0.5222
  15.5600          0.5228          0.5228          0.5228
  15.5800          0.5235          0.5235          0.5235
  15.6000          0.5243          0.5243          0.5243
  15.6200          0.5249          0.5249          0.5249
  15.6400          0.5253          0.5253          0.5253
  15.6600          0.5256          0.5256          0.5256
  15.6800          0.5258          0.5258          0.5258
  15.7000          0.5260          0.5260          0.5260
  15.7200          0.5260          0.5260          0.5260
  15.7400          0.5260          0.5260          0.5260
  15.7600          0.5257          0.5257          0.5257
  15.7800          0.5252          0.5252          0.5252
  15.8000          0.5245          0.5245          0.5245
  15.8200          0.5234          0.5234          0.5234
  15.8400          0.5220          0.5220          0.5220
  15.8600          0.5206          0.5206          0.5206
  15.8800          0.5191          0.5191          0.5191
  15.9000          0.5179          0.5179          0.5179
  15.9200          0.5170          0.5170          0.5170
  15.9400          0.5166          0.5166          0.5166
  15.9600          0.5169          0.5169          0.5169
  15.9800          0.5179          0.5179          0.5179
  16.0000          0.5194          0.5194          0.5194
  16.0200          0.5215          0.5215          0.5215
  16.0400          0.5238          0.5238          0.5238
  16.0600          0.5261          0.5261          0.5261
  16.0800          0.5281          0.5281          0.5281
  16.1000          0.5296          0.5296          0.5296
  16.1200          0.5304          0.5304          0.5304
  16.1400          0.5308          0.5308          0.5308
  16.1600          0.5309          0.5309          0.5309
  16.1800          0.5311          0.5311          0.5311
  16.2000          0.5318          0.5318          0.5318
  16.2200          0.5332          0.5332          0.5332
  16.2400          0.5358          0.5358          0.5358
  16.2600          0.5396          0.5396          0.5396
  16.2800          0.5446          0.5446          0.5446
  16.3000          0.5507          0.5507          0.5507
  16.3200          0.5576          0.5576          0.5576
  16.3400          0.5647          0.5647          0.5647
  16.3600          0.5716          0.5716          0.5716
  16.3800          0.5779          0.5779          0.5779
  16.4000          0.5831          0.5831          0.5831
  16.4200          0.5871          0.5871          0.5871
  16.4400          0.5900          0.5900          0.5900
  16.4600          0.5920          0.5920          0.5920
  16.4800          0.5933          0.5933          0.5933
  16.5000          0.5940          0.5940          0.5940
  16.5200          0.5943          0.5943          0.5943
  16.5400          0.5941          0.5941          0.5941
  16.5600          0.5935          0.5935          0.5935
  16.5800          0.5921          0.5921          0.5921
  16.6000          0.5901          0.5901          0.5901
  16.6200          0.5873          0.5873          0.5873
  16.6400          0.5839          0.5839          0.5839
  16.6600          0.5800          0.5800          0.5800
  16.6800          0.5758          0.5758          0.5758
  16.7000          0.5713          0.5713          0.5713
  16.7200          0.5666          0.5666          0.5666
  16.7400          0.5619          0.5619          0.5619
  16.7600          0.5572          0.5572          0.5572
  16.7800          0.5523          0.5523          0.5523
  16.8000          0.5475          0.5475          0.5475
  16.8200          0.5427          0.5427          0.5427
  16.8400          0.5380          0.5380          0.5380
  16.8600          0.5336          0.5336          0.5336
  16.8800          0.5298          0.5298          0.5298
  16.9000          0.5268          0.5268          0.5268
  16.9200          0.5248          0.5248          0.5248
  16.9400          0.5241          0.5241          0.5241
  16.9600          0.5250          0.5250          0.5250
  16.9800          0.5275          0.5275          0.5275
  17.0000          0.5318          0.5318          0.5318
  17.0200          0.5378          0.5378          0.5378
  17.0400          0.5453          0.5453          0.5453
  17.0600          0.5539          0.5539          0.5539
  17.0800          0.5633          0.5633          0.5633
  17.1000          0.5728          0.5728          0.5728
  17.1200          0.5818          0.5818          0.5818
  17.1400          0.5899          0.5899          0.5899
  17.1600          0.5966          0.5966          0.5966
  17.1800          0.6019          0.6019          0.6019
  17.2000          0.6059          0.6059          0.6059
  17.2200          0.6086          0.6086          0.6086
  17.2400          0.6103          0.6103          0.6103
  17.2600          0.6112          0.6112          0.6112
  17.2800          0.6116          0.6116          0.6116
  17.3000          0.6116          0.6116          0.6116
  17.3200          0.6112          0.6112          0.6112
  17.3400          0.6106          0.6106          0.6106
  17.3600          0.6098          0.6098          0.6098
  17.3800          0.6091          0.6091          0.6091
  17.4000          0.6085          0.6085          0.6085
  17.4200          0.6082          0.6082          0.6082
  17.4400          0.6085          0.6085          0.6085
  17.4600          0.6095          0.6095          0.6095
  17.4800          0.6110          0.6110          0.6110
  17.5000          0.6130          0.6130          0.6130
  17.5200          0.6154          0.6154          0.6154
  17.5400          0.6178          0.6178          0.6178
  17.5600          0.6199          0.6199          0.6199
  17.5800          0.6212          0.6212          0.6212
  17.6000          0.6216          0.6216          0.6216
  17.6200          0.6208          0.6208          0.6208
  17.6400          0.6188          0.6188          0.6188
  17.6600          0.6155          0.6155          0.6155
  17.6800          0.6113          0.6113          0.6113
  17.7000          0.6065          0.6065          0.6065
  17.7200          0.6013          0.6013          0.6013
  17.7400          0.5962          0.5962          0.5962
  17.7600          0.5916          0.5916          0.5916
  17.7800          0.5876          0.5876          0.5876
  17.8000          0.5844          0.5844          0.5844
  17.8200          0.5823          0.5823          0.5823
  17.8400          0.5812          0.5812          0.5812
  17.8600          0.5811          0.5811          0.5811
  17.8800          0.5818          0.5818          0.5818
  17.9000          0.5832          0.5832          0.5832
  17.9200          0.5851          0.5851          0.5851
  17.9400          0.5872          0.5872          0.5872
  17.9600          0.5894          0.5894          0.5894
  17.9800          0.5915          0.5915          0.5915
  18.0000          0.5935          0.5935          0.5935
  18.0200          0.5954          0.5954          0.5954
  18.0400          0.5974          0.5974          0.5974
  18.0600          0.5994          0.5994          0.5994
  18.0800          0.6014          0.6014          0.6014
  18.1000          0.6033          0.6033          0.6033
  18.1200          0.6052          0.6052          0.6052
  18.1400          0.6068          0.6068          0.6068
  18.1600          0.6080          0.6080          0.6080
  18.1800          0.6089          0.6089          0.6089
  18.2000          0.6095          0.6095          0.6095
  18.2200          0.6098          0.6098          0.6098
  18.2400          0.6100          0.6100          0.6100
  18.2600          0.6102          0.6102          0.6102
  18.2800          0.6106          0.6106          0.6106
  18.3000          0.6110          0.6110          0.6110
  18.3200          0.6115          0.6115          0.6115
  18.3400          0.6121          0.6121          0.6121
  18.3600          0.6127          0.6127          0.6127
  18.3800          0.6132          0.6132          0.6132
  18.4000          0.6136          0.6136          0.6136
  18.4200          0.6139          0.6139          0.6139
  18.4400          0.6139          0.6139          0.6139
  18.4600          0.6137          0.6137          0.6137
  18.4800          0.6131          0.6131          0.6131
  18.5000          0.6120          0.6120          0.6120
  18.5200          0.6103          0.6103          0.6103
  18.5400          0.6080          0.6080          0.6080
  18.5600          0.6052          0.6052          0.6052
  18.5800          0.6020          0.6020          0.6020
  18.6000          0.5984          0.5984          0.5984
  18.6200          0.5947          0.5947          0.5947
  18.6400          0.5908          0.5908          0.5908
  18.6600          0.5866          0.5866          0.5866
  18.6800          0.5821          0.5821          0.5821
  18.7000          0.5770          0.5770          0.5770
  18.7200          0.5712          0.5712          0.5712
  18.7400          0.5645          0.5645          0.5645
  18.7600          0.5569          0.5569          0.5569
  18.7800          0.5482          0.5482          0.5482
  18.8000          0.5386          0.5386          0.5386
  18.8200          0.5280          0.5280          0.5280
  18.8400          0.5168          0.5168          0.5168
  18.8600          0.5050          0.5050          0.5050
  18.8800          0.4928          0.4928          0.4928
  18.9000          0.4805          0.4805          0.4805
  18.9200          0.4683          0.4683          0.4683
  18.9400          0.4565          0.4565          0.4565
  18.9600          0.4454          0.4454          0.4454
  18.9800          0.4351          0.4351          0.4351
  19.0000          0.4259          0.4259          0.4259
  19.0200          0.4178          0.4178          0.4178
  19.0400          0.4109          0.4109          0.4109
  19.0600          0.4051          0.4051          0.4051
  19.0800          0.4005          0.4005          0.4005
  19.1000          0.3970          0.3970          0.3970
  19.1200          0.3945          0.3945          0.3945
  19.1400          0.3928          0.3928          0.3928
  19.1600          0.3918          0.3918          0.3918
  19.1800          0.3913          0.3913          0.3913
  19.2000          0.3914          0.3914          0.3914
  19.2200          0.3916          0.3916          0.3916
  19.2400          0.3920          0.3920          0.3920
  19.2600          0.3923          0.3923          0.3923
  19.2800          0.3924          0.3924          0.3924
  19.3000          0.3922          0.3922          0.3922
  19.3200          0.3913          0.3913          0.3913
  19.3400          0.3899          0.3899          0.3899
  19.3600          0.3878          0.3878          0.3878
  19.3800          0.3851          0.3851          0.3851
  19.4000          0.3819          0.3819          0.3819
  19.4200          0.3782          0.3782          0.3782
  19.4400          0.3743          0.3743          0.3743
  19.4600          0.3703          0.3703          0.3703
  19.4800          0.3662          0.3662          0.3662
  19.5000          0.3621          0.3621          0.3621
  19.5200          0.3580          0.3580          0.3580
  19.5400          0.3538          0.3538          0.3538
  19.5600          0.3495          0.3495          0.3495
  19.5800          0.3451          0.3451          0.3451
  19.6000          0.3404          0.3404          0.3404
  19.6200          0.3356          0.3356          0.3356
  19.6400          0.3305          0.3305          0.3305
  19.6600          0.3252          0.3252          0.3252
  19.6800          0.3196          0.3196          0.3196
  19.7000          0.3137          0.3137          0.3137
  19.7200          0.3075          0.3075          0.3075
  19.7400          0.3008          0.3008          0.3008
  19.7600          0.2935          0.2935          0.2935
  19.7800          0.2856          0.2856          0.2856
  19.8000          0.2770          0.2770          0.2770
  19.8200          0.2678          0.2678          0.2678
  19.8400          0.2581          0.2581          0.2581
  19.8600          0.2477          0.2477          0.2477
  19.8800          0.2369          0.2369          0.2369
  19.9000          0.2256          0.2256          0.2256
  19.9200          0.2138          0.2138          0.2138
  19.9400          0.2013          0.2013          0.2013
  19.9600          0.1883          0.1883          0.1883
  19.9800          0.1748          0.1748          0.1748
  20.0000          0.1612          0.1612          0.1612
