# E(eV)    DOS      Integrated DOS
-14.771884 0.000000 0.000000
-14.585884 0.000000 0.000000
-14.400884 0.000000 0.000000
-14.215884 0.000000 0.000000
-14.030884 0.000000 0.000000
-13.844884 0.000000 0.000000
-13.659884 0.000000 0.000000
-13.474884 0.000000 0.000000
-13.288884 0.000000 0.000000
-13.103884 0.000000 0.000000
-12.918884 0.000000 0.000000
-12.732884 0.000004 0.000001
-12.547884 0.000339 0.000063
-12.362884 0.007452 0.001444
-12.176884 0.048980 0.010520
-11.991884 0.129400 0.034490
-11.806884 0.202500 0.072020
-11.621884 0.257400 0.119700
-11.435884 0.303800 0.176000
-11.250884 0.346300 0.240200
-11.065884 0.387100 0.311900
-10.879884 0.427500 0.391100
-10.694884 0.469100 0.478100
-10.509884 0.513800 0.573300
-10.323884 0.565100 0.678000
-10.138884 0.633600 0.795400
-9.953884 0.733000 0.931200
-9.768884 0.818700 1.083000
-9.582884 0.815000 1.234000
-9.397884 0.758000 1.374000
-9.212884 0.696600 1.504000
-9.026884 0.629800 1.620000
-8.841884 0.566200 1.725000
-8.656884 0.491500 1.816000
-8.470884 0.416900 1.893000
-8.285884 0.316500 1.952000
-8.100884 0.206000 1.990000
-7.914884 0.138400 2.016000
-7.729884 0.201700 2.053000
-7.544884 0.308700 2.111000
-7.359884 0.479300 2.199000
-7.173884 0.815900 2.351000
-6.988884 1.170000 2.567000
-6.803884 1.038000 2.760000
-6.617884 0.796400 2.907000
-6.432884 0.642600 3.026000
-6.247884 0.562100 3.131000
-6.061884 0.488000 3.221000
-5.876884 0.439400 3.302000
-5.691884 0.392100 3.375000
-5.506884 0.352700 3.440000
-5.320884 0.321400 3.500000
-5.135884 0.287900 3.553000
-4.950884 0.268000 3.603000
-4.764884 0.296800 3.658000
-4.579884 0.525400 3.755000
-4.394884 0.897300 3.922000
-4.208884 1.091000 4.124000
-4.023884 1.068000 4.322000
-3.838884 1.033000 4.513000
-3.652884 1.054000 4.708000
-3.467884 1.108000 4.914000
-3.282884 1.214000 5.138000
-3.097884 1.370000 5.392000
-2.911884 1.464000 5.664000
-2.726884 1.449000 5.932000
-2.541884 1.399000 6.191000
-2.355884 1.350000 6.441000
-2.170884 1.300000 6.682000
-1.985884 1.252000 6.914000
-1.799884 1.205000 7.138000
-1.614884 1.144000 7.350000
-1.429884 1.004000 7.536000
-1.243884 0.776500 7.680000
-1.058884 0.578900 7.787000
-0.873884 0.438800 7.868000
-0.688884 0.327300 7.929000
-0.502884 0.225300 7.971000
-0.317884 0.119900 7.993000
-0.132884 0.034610 7.999000
0.053116 0.004706 8.000000
0.238116 0.016390 8.003000
0.423116 0.090110 8.020000
0.609116 0.225400 8.062000
0.794116 0.356500 8.128000
0.979116 0.465200 8.214000
1.164116 0.567800 8.319000
1.350116 0.696900 8.448000
1.535116 0.857400 8.607000
1.720116 1.055000 8.803000
1.906116 1.304000 9.044000
2.091116 1.500000 9.322000
2.276116 1.481000 9.597000
2.462116 1.312000 9.840000
2.647116 1.167000 10.060000
2.832116 1.196000 10.280000
3.018116 1.594000 10.570000
3.203116 1.888000 10.920000
3.388116 1.739000 11.240000
3.573116 1.612000 11.540000
3.759116 1.443000 11.810000
3.944116 1.276000 12.050000
4.129116 1.225000 12.270000
4.315116 1.260000 12.510000
4.500116 1.299000 12.750000
4.685116 1.236000 12.980000
4.871116 1.209000 13.200000
5.056116 1.179000 13.420000
5.241116 1.162000 13.640000
5.426116 1.124000 13.840000
5.612116 1.071000 14.040000
5.797116 1.056000 14.240000
5.982116 1.016000 14.430000
6.168116 1.064000 14.620000
6.353116 1.144000 14.840000
6.538116 1.197000 15.060000
6.724116 1.187000 15.280000
6.909116 1.110000 15.480000
7.094116 1.131000 15.690000
7.280116 1.166000 15.910000
7.465116 1.244000 16.140000
7.650116 1.339000 16.390000
7.835116 1.242000 16.620000
8.021116 1.185000 16.840000
8.206116 1.133000 17.050000
8.391116 1.167000 17.260000
8.577116 1.269000 17.500000
8.762116 1.283000 17.740000
8.947116 1.347000 17.990000
9.133116 1.393000 18.240000
9.318116 1.331000 18.490000
9.503116 1.352000 18.740000
9.689116 1.321000 18.990000
9.874116 1.272000 19.220000
10.059116 1.263000 19.460000
10.244116 1.182000 19.670000
10.430116 1.171000 19.890000
10.615116 1.213000 20.120000
10.800116 1.249000 20.350000
10.986116 1.338000 20.600000
11.171116 1.296000 20.840000
11.356116 1.196000 21.060000
11.542116 1.243000 21.290000
11.727116 1.349000 21.540000
11.912116 1.447000 21.810000
12.097116 1.572000 22.100000
12.283116 1.608000 22.400000
12.468116 1.576000 22.690000
12.653116 1.555000 22.980000
12.839116 1.466000 23.250000
13.024116 1.435000 23.510000
13.209116 1.444000 23.780000
13.395116 1.512000 24.060000
13.580116 1.705000 24.380000
13.765116 1.857000 24.720000
13.951116 1.786000 25.050000
14.136116 1.619000 25.350000
14.321116 1.374000 25.610000
14.506116 1.249000 25.840000
14.692116 1.307000 26.080000
14.877116 1.424000 26.340000
15.062116 1.580000 26.640000
15.248116 1.659000 26.940000
15.433116 1.539000 27.230000
15.618116 1.386000 27.490000
15.804116 1.317000 27.730000
15.989116 1.295000 27.970000
16.174116 1.284000 28.210000
16.359116 1.380000 28.460000
16.545116 1.484000 28.740000
16.730116 1.566000 29.030000
16.915116 1.587000 29.320000
17.101116 1.518000 29.600000
17.286116 1.501000 29.880000
17.471116 1.603000 30.180000
17.657116 1.640000 30.480000
17.842116 1.660000 30.790000
18.027116 1.741000 31.110000
18.213116 1.855000 31.460000
18.398116 1.805000 31.790000
18.583116 1.688000 32.100000
18.768116 1.757000 32.430000
18.954116 1.924000 32.790000
19.139116 1.898000 33.140000
19.324116 1.787000 33.470000
19.510116 1.734000 33.790000
19.695116 1.690000 34.100000
19.880116 1.503000 34.380000
20.066116 1.332000 34.630000
20.251116 1.483000 34.900000
20.436116 1.634000 35.210000
20.622116 1.668000 35.520000
20.807116 1.728000 35.840000
20.992116 1.762000 36.160000
21.177116 1.783000 36.490000
21.363116 1.724000 36.810000
21.548116 1.732000 37.130000
21.733116 1.823000 37.470000
21.919116 1.773000 37.800000
22.104116 1.723000 38.120000
22.289116 1.691000 38.430000
22.475116 1.676000 38.740000
22.660116 1.698000 39.060000
22.845116 1.778000 39.390000
23.030116 1.805000 39.720000
23.216116 1.627000 40.020000
23.401116 1.502000 40.300000
23.586116 1.607000 40.600000
23.772116 1.660000 40.910000
23.957116 1.585000 41.200000
24.142116 1.499000 41.480000
24.328116 1.524000 41.760000
24.513116 1.462000 42.030000
24.698116 1.392000 42.290000
24.884116 1.452000 42.560000
25.069116 1.449000 42.830000
25.254116 1.441000 43.090000
25.439116 1.505000 43.370000
25.625116 1.612000 43.670000
25.810116 1.780000 44.000000
25.995116 1.914000 44.360000
26.181116 2.003000 44.730000
26.366116 1.863000 45.070000
26.551116 1.549000 45.360000
26.737116 1.351000 45.610000
26.922116 1.389000 45.870000
27.107116 1.690000 46.180000
27.292116 2.113000 46.570000
27.478116 2.183000 46.980000
27.663116 1.914000 47.330000
27.848116 1.737000 47.650000
28.034116 1.653000 47.960000
28.219116 1.549000 48.250000
28.404116 1.448000 48.510000
28.590116 1.500000 48.790000
28.775116 1.690000 49.110000
28.960116 1.977000 49.470000
29.146116 2.204000 49.880000
29.331116 2.222000 50.290000
29.516116 2.117000 50.680000
29.701116 2.040000 51.060000
29.887116 1.917000 51.420000
30.072116 1.884000 51.770000
30.257116 1.972000 52.130000
30.443116 1.959000 52.500000
30.628116 1.920000 52.850000
30.813116 1.952000 53.210000
30.999116 1.915000 53.570000
31.184116 1.964000 53.930000
31.369116 2.017000 54.310000
31.555116 1.990000 54.670000
31.740116 1.849000 55.020000
31.925116 1.782000 55.350000
32.110116 1.794000 55.680000
32.296116 1.904000 56.030000
32.481116 2.113000 56.420000
32.666116 2.183000 56.830000
32.852116 1.995000 57.200000
33.037116 1.746000 57.520000
33.222116 1.710000 57.840000
33.408116 1.780000 58.170000
33.593116 1.681000 58.480000
33.778116 1.538000 58.770000
33.963116 1.441000 59.030000
34.149116 1.338000 59.280000
34.334116 1.111000 59.490000
34.519116 0.838000 59.640000
34.705116 0.595300 59.750000
34.890116 0.396000 59.830000
35.075116 0.261400 59.870000
35.261116 0.190000 59.910000
35.446116 0.119600 59.930000
35.631116 0.089030 59.950000
35.817116 0.074650 59.960000
36.002116 0.046070 59.970000
36.187116 0.025380 59.970000
36.372116 0.021410 59.980000
36.558116 0.017570 59.980000
36.743116 0.016640 59.980000
36.928116 0.013670 59.990000
37.114116 0.009831 59.990000
37.299116 0.006901 59.990000
37.484116 0.010410 59.990000
37.670116 0.013370 59.990000
37.855116 0.006497 60.000000
38.040116 0.004900 60.000000
38.225116 0.009201 60.000000
38.411116 0.006367 60.000000
38.596116 0.001391 60.000000
38.781116 0.000086 60.000000
38.967116 0.000001 60.000000
39.152116 0.000000 60.000000
39.337116 0.000000 60.000000
39.523116 0.000000 60.000000
39.708116 0.000000 60.000000
39.893116 0.000000 60.000000
40.079116 0.000000 60.000000
40.264116 0.000000 60.000000
40.449116 0.000000 60.000000
40.634116 0.000000 60.000000
40.820116 0.000000 60.000000
