### electron energy loss spectra
   0.0000          0.0002          0.0002          0.0002
   0.0200          0.0005          0.0005          0.0005
   0.0400          0.0010          0.0010          0.0010
   0.0600          0.0015          0.0015          0.0015
   0.0800          0.0020          0.0020          0.0020
   0.1000          0.0025          0.0025          0.0025
   0.1200          0.0030          0.0030          0.0030
   0.1400          0.0035          0.0035          0.0035
   0.1600          0.0040          0.0040          0.0040
   0.1800          0.0045          0.0045          0.0045
   0.2000          0.0050          0.0050          0.0050
   0.2200          0.0055          0.0055          0.0055
   0.2400          0.0060          0.0060          0.0060
   0.2600          0.0065          0.0065          0.0065
   0.2800          0.0070          0.0070          0.0070
   0.3000          0.0076          0.0076          0.0076
   0.3200          0.0081          0.0081          0.0081
   0.3400          0.0086          0.0086          0.0086
   0.3600          0.0091          0.0091          0.0091
   0.3800          0.0097          0.0097          0.0097
   0.4000          0.0102          0.0102          0.0102
   0.4200          0.0107          0.0107          0.0107
   0.4400          0.0113          0.0113          0.0113
   0.4600          0.0118          0.0118          0.0118
   0.4800          0.0124          0.0124          0.0124
   0.5000          0.0129          0.0129          0.0129
   0.5200          0.0135          0.0135          0.0135
   0.5400          0.0140          0.0140          0.0140
   0.5600          0.0146          0.0146          0.0146
   0.5800          0.0152          0.0152          0.0152
   0.6000          0.0158          0.0158          0.0158
   0.6200          0.0164          0.0164          0.0164
   0.6400          0.0170          0.0170          0.0170
   0.6600          0.0176          0.0176          0.0176
   0.6800          0.0182          0.0182          0.0182
   0.7000          0.0188          0.0188          0.0188
   0.7200          0.0194          0.0194          0.0194
   0.7400          0.0200          0.0200          0.0200
   0.7600          0.0207          0.0207          0.0207
   0.7800          0.0213          0.0213          0.0213
   0.8000          0.0220          0.0220          0.0220
   0.8200          0.0227          0.0227          0.0227
   0.8400          0.0233          0.0233          0.0233
   0.8600          0.0240          0.0240          0.0240
   0.8800          0.0247          0.0247          0.0247
   0.9000          0.0255          0.0255          0.0255
   0.9200          0.0262          0.0262          0.0262
   0.9400          0.0269          0.0269          0.0269
   0.9600          0.0277          0.0277          0.0277
   0.9800          0.0284          0.0284          0.0284
   1.0000          0.0292          0.0292          0.0292
   1.0200          0.0300          0.0300          0.0300
   1.0400          0.0308          0.0308          0.0308
   1.0600          0.0316          0.0316          0.0316
   1.0800          0.0325          0.0325          0.0325
   1.1000          0.0333          0.0333          0.0333
   1.1200          0.0342          0.0342          0.0342
   1.1400          0.0351          0.0351          0.0351
   1.1600          0.0360          0.0360          0.0360
   1.1800          0.0369          0.0369          0.0369
   1.2000          0.0379          0.0379          0.0379
   1.2200          0.0389          0.0389          0.0389
   1.2400          0.0398          0.0398          0.0398
   1.2600          0.0409          0.0409          0.0409
   1.2800          0.0419          0.0419          0.0419
   1.3000          0.0429          0.0429          0.0429
   1.3200          0.0440          0.0440          0.0440
   1.3400          0.0451          0.0451          0.0451
   1.3600          0.0463          0.0463          0.0463
   1.3800          0.0474          0.0474          0.0474
   1.4000          0.0486          0.0486          0.0486
   1.4200          0.0498          0.0498          0.0498
   1.4400          0.0510          0.0510          0.0510
   1.4600          0.0523          0.0523          0.0523
   1.4800          0.0535          0.0535          0.0535
   1.5000          0.0548          0.0548          0.0548
   1.5200          0.0561          0.0561          0.0561
   1.5400          0.0575          0.0575          0.0575
   1.5600          0.0588          0.0588          0.0588
   1.5800          0.0602          0.0602          0.0602
   1.6000          0.0615          0.0615          0.0615
   1.6200          0.0629          0.0629          0.0629
   1.6400          0.0642          0.0642          0.0642
   1.6600          0.0655          0.0655          0.0655
   1.6800          0.0667          0.0667          0.0667
   1.7000          0.0679          0.0679          0.0679
   1.7200          0.0690          0.0690          0.0690
   1.7400          0.0701          0.0701          0.0701
   1.7600          0.0709          0.0709          0.0709
   1.7800          0.0717          0.0717          0.0717
   1.8000          0.0722          0.0722          0.0722
   1.8200          0.0726          0.0726          0.0726
   1.8400          0.0728          0.0728          0.0728
   1.8600          0.0728          0.0728          0.0728
   1.8800          0.0727          0.0727          0.0727
   1.9000          0.0725          0.0725          0.0725
   1.9200          0.0722          0.0722          0.0722
   1.9400          0.0720          0.0720          0.0720
   1.9600          0.0718          0.0718          0.0718
   1.9800          0.0716          0.0716          0.0716
   2.0000          0.0714          0.0714          0.0714
   2.0200          0.0713          0.0713          0.0713
   2.0400          0.0712          0.0712          0.0712
   2.0600          0.0710          0.0710          0.0710
   2.0800          0.0708          0.0708          0.0708
   2.1000          0.0706          0.0706          0.0706
   2.1200          0.0702          0.0702          0.0702
   2.1400          0.0698          0.0698          0.0698
   2.1600          0.0694          0.0694          0.0694
   2.1800          0.0690          0.0690          0.0690
   2.2000          0.0686          0.0686          0.0686
   2.2200          0.0682          0.0682          0.0682
   2.2400          0.0679          0.0679          0.0679
   2.2600          0.0677          0.0677          0.0677
   2.2800          0.0676          0.0676          0.0676
   2.3000          0.0675          0.0675          0.0675
   2.3200          0.0676          0.0676          0.0676
   2.3400          0.0679          0.0679          0.0679
   2.3600          0.0682          0.0682          0.0682
   2.3800          0.0687          0.0687          0.0687
   2.4000          0.0693          0.0693          0.0693
   2.4200          0.0701          0.0701          0.0701
   2.4400          0.0709          0.0709          0.0709
   2.4600          0.0719          0.0719          0.0719
   2.4800          0.0729          0.0729          0.0729
   2.5000          0.0740          0.0740          0.0740
   2.5200          0.0751          0.0751          0.0751
   2.5400          0.0762          0.0762          0.0762
   2.5600          0.0772          0.0772          0.0772
   2.5800          0.0782          0.0782          0.0782
   2.6000          0.0790          0.0790          0.0790
   2.6200          0.0797          0.0797          0.0797
   2.6400          0.0803          0.0803          0.0803
   2.6600          0.0807          0.0807          0.0807
   2.6800          0.0809          0.0809          0.0809
   2.7000          0.0811          0.0811          0.0811
   2.7200          0.0812          0.0812          0.0812
   2.7400          0.0813          0.0813          0.0813
   2.7600          0.0813          0.0813          0.0813
   2.7800          0.0814          0.0814          0.0814
   2.8000          0.0815          0.0815          0.0815
   2.8200          0.0818          0.0818          0.0818
   2.8400          0.0821          0.0821          0.0821
   2.8600          0.0827          0.0827          0.0827
   2.8800          0.0833          0.0833          0.0833
   2.9000          0.0842          0.0842          0.0842
   2.9200          0.0852          0.0852          0.0852
   2.9400          0.0864          0.0864          0.0864
   2.9600          0.0876          0.0876          0.0876
   2.9800          0.0889          0.0889          0.0889
   3.0000          0.0903          0.0903          0.0903
   3.0200          0.0915          0.0915          0.0915
   3.0400          0.0926          0.0926          0.0926
   3.0600          0.0935          0.0935          0.0935
   3.0800          0.0942          0.0942          0.0942
   3.1000          0.0947          0.0947          0.0947
   3.1200          0.0949          0.0949          0.0949
   3.1400          0.0950          0.0950          0.0950
   3.1600          0.0949          0.0949          0.0949
   3.1800          0.0946          0.0946          0.0946
   3.2000          0.0942          0.0942          0.0942
   3.2200          0.0936          0.0936          0.0936
   3.2400          0.0930          0.0930          0.0930
   3.2600          0.0924          0.0924          0.0924
   3.2800          0.0919          0.0919          0.0919
   3.3000          0.0915          0.0915          0.0915
   3.3200          0.0913          0.0913          0.0913
   3.3400          0.0914          0.0914          0.0914
   3.3600          0.0917          0.0917          0.0917
   3.3800          0.0923          0.0923          0.0923
   3.4000          0.0931          0.0931          0.0931
   3.4200          0.0941          0.0941          0.0941
   3.4400          0.0950          0.0950          0.0950
   3.4600          0.0960          0.0960          0.0960
   3.4800          0.0968          0.0968          0.0968
   3.5000          0.0976          0.0976          0.0976
   3.5200          0.0983          0.0983          0.0983
   3.5400          0.0991          0.0991          0.0991
   3.5600          0.1000          0.1000          0.1000
   3.5800          0.1010          0.1010          0.1010
   3.6000          0.1023          0.1023          0.1023
   3.6200          0.1037          0.1037          0.1037
   3.6400          0.1054          0.1054          0.1054
   3.6600          0.1073          0.1073          0.1073
   3.6800          0.1092          0.1092          0.1092
   3.7000          0.1111          0.1111          0.1111
   3.7200          0.1128          0.1128          0.1128
   3.7400          0.1143          0.1143          0.1143
   3.7600          0.1154          0.1154          0.1154
   3.7800          0.1162          0.1162          0.1162
   3.8000          0.1165          0.1165          0.1165
   3.8200          0.1165          0.1165          0.1165
   3.8400          0.1162          0.1162          0.1162
   3.8600          0.1157          0.1157          0.1157
   3.8800          0.1151          0.1151          0.1151
   3.9000          0.1145          0.1145          0.1145
   3.9200          0.1139          0.1139          0.1139
   3.9400          0.1136          0.1136          0.1136
   3.9600          0.1135          0.1135          0.1135
   3.9800          0.1138          0.1138          0.1138
   4.0000          0.1144          0.1144          0.1144
   4.0200          0.1154          0.1154          0.1154
   4.0400          0.1167          0.1167          0.1167
   4.0600          0.1184          0.1184          0.1184
   4.0800          0.1204          0.1204          0.1204
   4.1000          0.1227          0.1227          0.1227
   4.1200          0.1251          0.1251          0.1251
   4.1400          0.1276          0.1276          0.1276
   4.1600          0.1302          0.1302          0.1302
   4.1800          0.1327          0.1327          0.1327
   4.2000          0.1351          0.1351          0.1351
   4.2200          0.1374          0.1374          0.1374
   4.2400          0.1396          0.1396          0.1396
   4.2600          0.1416          0.1416          0.1416
   4.2800          0.1435          0.1435          0.1435
   4.3000          0.1450          0.1450          0.1450
   4.3200          0.1463          0.1463          0.1463
   4.3400          0.1471          0.1471          0.1471
   4.3600          0.1477          0.1477          0.1477
   4.3800          0.1480          0.1480          0.1480
   4.4000          0.1480          0.1480          0.1480
   4.4200          0.1481          0.1481          0.1481
   4.4400          0.1482          0.1482          0.1482
   4.4600          0.1485          0.1485          0.1485
   4.4800          0.1490          0.1490          0.1490
   4.5000          0.1499          0.1499          0.1499
   4.5200          0.1511          0.1511          0.1511
   4.5400          0.1526          0.1526          0.1526
   4.5600          0.1544          0.1544          0.1544
   4.5800          0.1565          0.1565          0.1565
   4.6000          0.1588          0.1588          0.1588
   4.6200          0.1612          0.1612          0.1612
   4.6400          0.1638          0.1638          0.1638
   4.6600          0.1664          0.1664          0.1664
   4.6800          0.1690          0.1690          0.1690
   4.7000          0.1713          0.1713          0.1713
   4.7200          0.1735          0.1735          0.1735
   4.7400          0.1752          0.1752          0.1752
   4.7600          0.1765          0.1765          0.1765
   4.7800          0.1773          0.1773          0.1773
   4.8000          0.1777          0.1777          0.1777
   4.8200          0.1778          0.1778          0.1778
   4.8400          0.1777          0.1777          0.1777
   4.8600          0.1774          0.1774          0.1774
   4.8800          0.1772          0.1772          0.1772
   4.9000          0.1771          0.1771          0.1771
   4.9200          0.1771          0.1771          0.1771
   4.9400          0.1774          0.1774          0.1774
   4.9600          0.1779          0.1779          0.1779
   4.9800          0.1788          0.1788          0.1788
   5.0000          0.1800          0.1800          0.1800
   5.0200          0.1815          0.1815          0.1815
   5.0400          0.1833          0.1833          0.1833
   5.0600          0.1853          0.1853          0.1853
   5.0800          0.1875          0.1875          0.1875
   5.1000          0.1897          0.1897          0.1897
   5.1200          0.1921          0.1921          0.1921
   5.1400          0.1944          0.1944          0.1944
   5.1600          0.1967          0.1967          0.1967
   5.1800          0.1988          0.1988          0.1988
   5.2000          0.2007          0.2007          0.2007
   5.2200          0.2023          0.2023          0.2023
   5.2400          0.2034          0.2034          0.2034
   5.2600          0.2042          0.2042          0.2042
   5.2800          0.2045          0.2045          0.2045
   5.3000          0.2045          0.2045          0.2045
   5.3200          0.2043          0.2043          0.2043
   5.3400          0.2039          0.2039          0.2039
   5.3600          0.2035          0.2035          0.2035
   5.3800          0.2031          0.2031          0.2031
   5.4000          0.2027          0.2027          0.2027
   5.4200          0.2023          0.2023          0.2023
   5.4400          0.2021          0.2021          0.2021
   5.4600          0.2019          0.2019          0.2019
   5.4800          0.2018          0.2018          0.2018
   5.5000          0.2017          0.2017          0.2017
   5.5200          0.2018          0.2018          0.2018
   5.5400          0.2019          0.2019          0.2019
   5.5600          0.2021          0.2021          0.2021
   5.5800          0.2024          0.2024          0.2024
   5.6000          0.2027          0.2027          0.2027
   5.6200          0.2032          0.2032          0.2032
   5.6400          0.2039          0.2039          0.2039
   5.6600          0.2047          0.2047          0.2047
   5.6800          0.2056          0.2056          0.2056
   5.7000          0.2067          0.2067          0.2067
   5.7200          0.2080          0.2080          0.2080
   5.7400          0.2093          0.2093          0.2093
   5.7600          0.2107          0.2107          0.2107
   5.7800          0.2121          0.2121          0.2121
   5.8000          0.2133          0.2133          0.2133
   5.8200          0.2142          0.2142          0.2142
   5.8400          0.2148          0.2148          0.2148
   5.8600          0.2150          0.2150          0.2150
   5.8800          0.2148          0.2148          0.2148
   5.9000          0.2143          0.2143          0.2143
   5.9200          0.2134          0.2134          0.2134
   5.9400          0.2124          0.2124          0.2124
   5.9600          0.2111          0.2111          0.2111
   5.9800          0.2099          0.2099          0.2099
   6.0000          0.2086          0.2086          0.2086
   6.0200          0.2074          0.2074          0.2074
   6.0400          0.2063          0.2063          0.2063
   6.0600          0.2055          0.2055          0.2055
   6.0800          0.2047          0.2047          0.2047
   6.1000          0.2042          0.2042          0.2042
   6.1200          0.2037          0.2037          0.2037
   6.1400          0.2035          0.2035          0.2035
   6.1600          0.2033          0.2033          0.2033
   6.1800          0.2033          0.2033          0.2033
   6.2000          0.2033          0.2033          0.2033
   6.2200          0.2033          0.2033          0.2033
   6.2400          0.2032          0.2032          0.2032
   6.2600          0.2028          0.2028          0.2028
   6.2800          0.2022          0.2022          0.2022
   6.3000          0.2012          0.2012          0.2012
   6.3200          0.1998          0.1998          0.1998
   6.3400          0.1981          0.1981          0.1981
   6.3600          0.1960          0.1960          0.1960
   6.3800          0.1938          0.1938          0.1938
   6.4000          0.1916          0.1916          0.1916
   6.4200          0.1894          0.1894          0.1894
   6.4400          0.1875          0.1875          0.1875
   6.4600          0.1859          0.1859          0.1859
   6.4800          0.1846          0.1846          0.1846
   6.5000          0.1837          0.1837          0.1837
   6.5200          0.1831          0.1831          0.1831
   6.5400          0.1828          0.1828          0.1828
   6.5600          0.1828          0.1828          0.1828
   6.5800          0.1830          0.1830          0.1830
   6.6000          0.1833          0.1833          0.1833
   6.6200          0.1836          0.1836          0.1836
   6.6400          0.1841          0.1841          0.1841
   6.6600          0.1845          0.1845          0.1845
   6.6800          0.1848          0.1848          0.1848
   6.7000          0.1852          0.1852          0.1852
   6.7200          0.1856          0.1856          0.1856
   6.7400          0.1860          0.1860          0.1860
   6.7600          0.1865          0.1865          0.1865
   6.7800          0.1870          0.1870          0.1870
   6.8000          0.1877          0.1877          0.1877
   6.8200          0.1883          0.1883          0.1883
   6.8400          0.1889          0.1889          0.1889
   6.8600          0.1894          0.1894          0.1894
   6.8800          0.1898          0.1898          0.1898
   6.9000          0.1900          0.1900          0.1900
   6.9200          0.1902          0.1902          0.1902
   6.9400          0.1903          0.1903          0.1903
   6.9600          0.1904          0.1904          0.1904
   6.9800          0.1905          0.1905          0.1905
   7.0000          0.1909          0.1909          0.1909
   7.0200          0.1913          0.1913          0.1913
   7.0400          0.1919          0.1919          0.1919
   7.0600          0.1925          0.1925          0.1925
   7.0800          0.1930          0.1930          0.1930
   7.1000          0.1934          0.1934          0.1934
   7.1200          0.1936          0.1936          0.1936
   7.1400          0.1934          0.1934          0.1934
   7.1600          0.1929          0.1929          0.1929
   7.1800          0.1921          0.1921          0.1921
   7.2000          0.1912          0.1912          0.1912
   7.2200          0.1902          0.1902          0.1902
   7.2400          0.1893          0.1893          0.1893
   7.2600          0.1886          0.1886          0.1886
   7.2800          0.1881          0.1881          0.1881
   7.3000          0.1879          0.1879          0.1879
   7.3200          0.1878          0.1878          0.1878
   7.3400          0.1880          0.1880          0.1880
   7.3600          0.1884          0.1884          0.1884
   7.3800          0.1889          0.1889          0.1889
   7.4000          0.1896          0.1896          0.1896
   7.4200          0.1903          0.1903          0.1903
   7.4400          0.1911          0.1911          0.1911
   7.4600          0.1920          0.1920          0.1920
   7.4800          0.1928          0.1928          0.1928
   7.5000          0.1936          0.1936          0.1936
   7.5200          0.1944          0.1944          0.1944
   7.5400          0.1950          0.1950          0.1950
   7.5600          0.1956          0.1956          0.1956
   7.5800          0.1960          0.1960          0.1960
   7.6000          0.1964          0.1964          0.1964
   7.6200          0.1968          0.1968          0.1968
   7.6400          0.1971          0.1971          0.1971
   7.6600          0.1974          0.1974          0.1974
   7.6800          0.1979          0.1979          0.1979
   7.7000          0.1985          0.1985          0.1985
   7.7200          0.1992          0.1992          0.1992
   7.7400          0.2002          0.2002          0.2002
   7.7600          0.2015          0.2015          0.2015
   7.7800          0.2030          0.2030          0.2030
   7.8000          0.2047          0.2047          0.2047
   7.8200          0.2067          0.2067          0.2067
   7.8400          0.2088          0.2088          0.2088
   7.8600          0.2109          0.2109          0.2109
   7.8800          0.2130          0.2130          0.2130
   7.9000          0.2148          0.2148          0.2148
   7.9200          0.2163          0.2163          0.2163
   7.9400          0.2174          0.2174          0.2174
   7.9600          0.2181          0.2181          0.2181
   7.9800          0.2182          0.2182          0.2182
   8.0000          0.2179          0.2179          0.2179
   8.0200          0.2170          0.2170          0.2170
   8.0400          0.2158          0.2158          0.2158
   8.0600          0.2143          0.2143          0.2143
   8.0800          0.2126          0.2126          0.2126
   8.1000          0.2109          0.2109          0.2109
   8.1200          0.2094          0.2094          0.2094
   8.1400          0.2083          0.2083          0.2083
   8.1600          0.2075          0.2075          0.2075
   8.1800          0.2073          0.2073          0.2073
   8.2000          0.2076          0.2076          0.2076
   8.2200          0.2085          0.2085          0.2085
   8.2400          0.2099          0.2099          0.2099
   8.2600          0.2118          0.2118          0.2118
   8.2800          0.2142          0.2142          0.2142
   8.3000          0.2168          0.2168          0.2168
   8.3200          0.2198          0.2198          0.2198
   8.3400          0.2231          0.2231          0.2231
   8.3600          0.2265          0.2265          0.2265
   8.3800          0.2300          0.2300          0.2300
   8.4000          0.2336          0.2336          0.2336
   8.4200          0.2372          0.2372          0.2372
   8.4400          0.2404          0.2404          0.2404
   8.4600          0.2432          0.2432          0.2432
   8.4800          0.2454          0.2454          0.2454
   8.5000          0.2468          0.2468          0.2468
   8.5200          0.2474          0.2474          0.2474
   8.5400          0.2471          0.2471          0.2471
   8.5600          0.2461          0.2461          0.2461
   8.5800          0.2447          0.2447          0.2447
   8.6000          0.2429          0.2429          0.2429
   8.6200          0.2410          0.2410          0.2410
   8.6400          0.2392          0.2392          0.2392
   8.6600          0.2375          0.2375          0.2375
   8.6800          0.2361          0.2361          0.2361
   8.7000          0.2350          0.2350          0.2350
   8.7200          0.2342          0.2342          0.2342
   8.7400          0.2338          0.2338          0.2338
   8.7600          0.2339          0.2339          0.2339
   8.7800          0.2343          0.2343          0.2343
   8.8000          0.2351          0.2351          0.2351
   8.8200          0.2362          0.2362          0.2362
   8.8400          0.2376          0.2376          0.2376
   8.8600          0.2393          0.2393          0.2393
   8.8800          0.2412          0.2412          0.2412
   8.9000          0.2434          0.2434          0.2434
   8.9200          0.2457          0.2457          0.2457
   8.9400          0.2482          0.2482          0.2482
   8.9600          0.2507          0.2507          0.2507
   8.9800          0.2534          0.2534          0.2534
   9.0000          0.2560          0.2560          0.2560
   9.0200          0.2586          0.2586          0.2586
   9.0400          0.2612          0.2612          0.2612
   9.0600          0.2638          0.2638          0.2638
   9.0800          0.2664          0.2664          0.2664
   9.1000          0.2690          0.2690          0.2690
   9.1200          0.2716          0.2716          0.2716
   9.1400          0.2741          0.2741          0.2741
   9.1600          0.2767          0.2767          0.2767
   9.1800          0.2792          0.2792          0.2792
   9.2000          0.2817          0.2817          0.2817
   9.2200          0.2842          0.2842          0.2842
   9.2400          0.2868          0.2868          0.2868
   9.2600          0.2895          0.2895          0.2895
   9.2800          0.2921          0.2921          0.2921
   9.3000          0.2948          0.2948          0.2948
   9.3200          0.2974          0.2974          0.2974
   9.3400          0.2996          0.2996          0.2996
   9.3600          0.3014          0.3014          0.3014
   9.3800          0.3026          0.3026          0.3026
   9.4000          0.3031          0.3031          0.3031
   9.4200          0.3030          0.3030          0.3030
   9.4400          0.3025          0.3025          0.3025
   9.4600          0.3017          0.3017          0.3017
   9.4800          0.3009          0.3009          0.3009
   9.5000          0.3004          0.3004          0.3004
   9.5200          0.3003          0.3003          0.3003
   9.5400          0.3008          0.3008          0.3008
   9.5600          0.3021          0.3021          0.3021
   9.5800          0.3041          0.3041          0.3041
   9.6000          0.3069          0.3069          0.3069
   9.6200          0.3104          0.3104          0.3104
   9.6400          0.3145          0.3145          0.3145
   9.6600          0.3190          0.3190          0.3190
   9.6800          0.3237          0.3237          0.3237
   9.7000          0.3285          0.3285          0.3285
   9.7200          0.3332          0.3332          0.3332
   9.7400          0.3377          0.3377          0.3377
   9.7600          0.3420          0.3420          0.3420
   9.7800          0.3460          0.3460          0.3460
   9.8000          0.3499          0.3499          0.3499
   9.8200          0.3536          0.3536          0.3536
   9.8400          0.3573          0.3573          0.3573
   9.8600          0.3609          0.3609          0.3609
   9.8800          0.3645          0.3645          0.3645
   9.9000          0.3678          0.3678          0.3678
   9.9200          0.3708          0.3708          0.3708
   9.9400          0.3735          0.3735          0.3735
   9.9600          0.3756          0.3756          0.3756
   9.9800          0.3774          0.3774          0.3774
  10.0000          0.3789          0.3789          0.3789
  10.0200          0.3802          0.3802          0.3802
  10.0400          0.3816          0.3816          0.3816
  10.0600          0.3834          0.3834          0.3834
  10.0800          0.3856          0.3856          0.3856
  10.1000          0.3883          0.3883          0.3883
  10.1200          0.3916          0.3916          0.3916
  10.1400          0.3955          0.3955          0.3955
  10.1600          0.3999          0.3999          0.3999
  10.1800          0.4048          0.4048          0.4048
  10.2000          0.4101          0.4101          0.4101
  10.2200          0.4155          0.4155          0.4155
  10.2400          0.4210          0.4210          0.4210
  10.2600          0.4263          0.4263          0.4263
  10.2800          0.4312          0.4312          0.4312
  10.3000          0.4354          0.4354          0.4354
  10.3200          0.4387          0.4387          0.4387
  10.3400          0.4408          0.4408          0.4408
  10.3600          0.4417          0.4417          0.4417
  10.3800          0.4414          0.4414          0.4414
  10.4000          0.4401          0.4401          0.4401
  10.4200          0.4382          0.4382          0.4382
  10.4400          0.4359          0.4359          0.4359
  10.4600          0.4337          0.4337          0.4337
  10.4800          0.4319          0.4319          0.4319
  10.5000          0.4305          0.4305          0.4305
  10.5200          0.4299          0.4299          0.4299
  10.5400          0.4300          0.4300          0.4300
  10.5600          0.4307          0.4307          0.4307
  10.5800          0.4319          0.4319          0.4319
  10.6000          0.4334          0.4334          0.4334
  10.6200          0.4352          0.4352          0.4352
  10.6400          0.4369          0.4369          0.4369
  10.6600          0.4387          0.4387          0.4387
  10.6800          0.4405          0.4405          0.4405
  10.7000          0.4423          0.4423          0.4423
  10.7200          0.4442          0.4442          0.4442
  10.7400          0.4462          0.4462          0.4462
  10.7600          0.4482          0.4482          0.4482
  10.7800          0.4501          0.4501          0.4501
  10.8000          0.4518          0.4518          0.4518
  10.8200          0.4533          0.4533          0.4533
  10.8400          0.4546          0.4546          0.4546
  10.8600          0.4556          0.4556          0.4556
  10.8800          0.4564          0.4564          0.4564
  10.9000          0.4572          0.4572          0.4572
  10.9200          0.4580          0.4580          0.4580
  10.9400          0.4589          0.4589          0.4589
  10.9600          0.4601          0.4601          0.4601
  10.9800          0.4614          0.4614          0.4614
  11.0000          0.4629          0.4629          0.4629
  11.0200          0.4646          0.4646          0.4646
  11.0400          0.4665          0.4665          0.4665
  11.0600          0.4684          0.4684          0.4684
  11.0800          0.4704          0.4704          0.4704
  11.1000          0.4723          0.4723          0.4723
  11.1200          0.4742          0.4742          0.4742
  11.1400          0.4757          0.4757          0.4757
  11.1600          0.4769          0.4769          0.4769
  11.1800          0.4776          0.4776          0.4776
  11.2000          0.4778          0.4778          0.4778
  11.2200          0.4776          0.4776          0.4776
  11.2400          0.4772          0.4772          0.4772
  11.2600          0.4767          0.4767          0.4767
  11.2800          0.4764          0.4764          0.4764
  11.3000          0.4764          0.4764          0.4764
  11.3200          0.4768          0.4768          0.4768
  11.3400          0.4776          0.4776          0.4776
  11.3600          0.4786          0.4786          0.4786
  11.3800          0.4798          0.4798          0.4798
  11.4000          0.4809          0.4809          0.4809
  11.4200          0.4815          0.4815          0.4815
  11.4400          0.4816          0.4816          0.4816
  11.4600          0.4810          0.4810          0.4810
  11.4800          0.4797          0.4797          0.4797
  11.5000          0.4777          0.4777          0.4777
  11.5200          0.4752          0.4752          0.4752
  11.5400          0.4723          0.4723          0.4723
  11.5600          0.4691          0.4691          0.4691
  11.5800          0.4657          0.4657          0.4657
  11.6000          0.4622          0.4622          0.4622
  11.6200          0.4586          0.4586          0.4586
  11.6400          0.4552          0.4552          0.4552
  11.6600          0.4518          0.4518          0.4518
  11.6800          0.4486          0.4486          0.4486
  11.7000          0.4456          0.4456          0.4456
  11.7200          0.4429          0.4429          0.4429
  11.7400          0.4405          0.4405          0.4405
  11.7600          0.4385          0.4385          0.4385
  11.7800          0.4368          0.4368          0.4368
  11.8000          0.4356          0.4356          0.4356
  11.8200          0.4347          0.4347          0.4347
  11.8400          0.4342          0.4342          0.4342
  11.8600          0.4339          0.4339          0.4339
  11.8800          0.4338          0.4338          0.4338
  11.9000          0.4338          0.4338          0.4338
  11.9200          0.4337          0.4337          0.4337
  11.9400          0.4335          0.4335          0.4335
  11.9600          0.4331          0.4331          0.4331
  11.9800          0.4326          0.4326          0.4326
  12.0000          0.4320          0.4320          0.4320
  12.0200          0.4313          0.4313          0.4313
  12.0400          0.4305          0.4305          0.4305
  12.0600          0.4298          0.4298          0.4298
  12.0800          0.4290          0.4290          0.4290
  12.1000          0.4282          0.4282          0.4282
  12.1200          0.4273          0.4273          0.4273
  12.1400          0.4262          0.4262          0.4262
  12.1600          0.4249          0.4249          0.4249
  12.1800          0.4234          0.4234          0.4234
  12.2000          0.4218          0.4218          0.4218
  12.2200          0.4201          0.4201          0.4201
  12.2400          0.4185          0.4185          0.4185
  12.2600          0.4171          0.4171          0.4171
  12.2800          0.4162          0.4162          0.4162
  12.3000          0.4159          0.4159          0.4159
  12.3200          0.4161          0.4161          0.4161
  12.3400          0.4169          0.4169          0.4169
  12.3600          0.4183          0.4183          0.4183
  12.3800          0.4200          0.4200          0.4200
  12.4000          0.4221          0.4221          0.4221
  12.4200          0.4244          0.4244          0.4244
  12.4400          0.4267          0.4267          0.4267
  12.4600          0.4290          0.4290          0.4290
  12.4800          0.4312          0.4312          0.4312
  12.5000          0.4331          0.4331          0.4331
  12.5200          0.4348          0.4348          0.4348
  12.5400          0.4361          0.4361          0.4361
  12.5600          0.4370          0.4370          0.4370
  12.5800          0.4375          0.4375          0.4375
  12.6000          0.4377          0.4377          0.4377
  12.6200          0.4377          0.4377          0.4377
  12.6400          0.4374          0.4374          0.4374
  12.6600          0.4369          0.4369          0.4369
  12.6800          0.4363          0.4363          0.4363
  12.7000          0.4356          0.4356          0.4356
  12.7200          0.4349          0.4349          0.4349
  12.7400          0.4340          0.4340          0.4340
  12.7600          0.4331          0.4331          0.4331
  12.7800          0.4322          0.4322          0.4322
  12.8000          0.4313          0.4313          0.4313
  12.8200          0.4305          0.4305          0.4305
  12.8400          0.4299          0.4299          0.4299
  12.8600          0.4296          0.4296          0.4296
  12.8800          0.4297          0.4297          0.4297
  12.9000          0.4300          0.4300          0.4300
  12.9200          0.4305          0.4305          0.4305
  12.9400          0.4310          0.4310          0.4310
  12.9600          0.4315          0.4315          0.4315
  12.9800          0.4318          0.4318          0.4318
  13.0000          0.4318          0.4318          0.4318
  13.0200          0.4317          0.4317          0.4317
  13.0400          0.4314          0.4314          0.4314
  13.0600          0.4311          0.4311          0.4311
  13.0800          0.4310          0.4310          0.4310
  13.1000          0.4312          0.4312          0.4312
  13.1200          0.4318          0.4318          0.4318
  13.1400          0.4329          0.4329          0.4329
  13.1600          0.4345          0.4345          0.4345
  13.1800          0.4366          0.4366          0.4366
  13.2000          0.4391          0.4391          0.4391
  13.2200          0.4421          0.4421          0.4421
  13.2400          0.4452          0.4452          0.4452
  13.2600          0.4484          0.4484          0.4484
  13.2800          0.4516          0.4516          0.4516
  13.3000          0.4547          0.4547          0.4547
  13.3200          0.4574          0.4574          0.4574
  13.3400          0.4598          0.4598          0.4598
  13.3600          0.4617          0.4617          0.4617
  13.3800          0.4631          0.4631          0.4631
  13.4000          0.4640          0.4640          0.4640
  13.4200          0.4646          0.4646          0.4646
  13.4400          0.4650          0.4650          0.4650
  13.4600          0.4653          0.4653          0.4653
  13.4800          0.4657          0.4657          0.4657
  13.5000          0.4663          0.4663          0.4663
  13.5200          0.4673          0.4673          0.4673
  13.5400          0.4687          0.4687          0.4687
  13.5600          0.4705          0.4705          0.4705
  13.5800          0.4726          0.4726          0.4726
  13.6000          0.4750          0.4750          0.4750
  13.6200          0.4775          0.4775          0.4775
  13.6400          0.4801          0.4801          0.4801
  13.6600          0.4828          0.4828          0.4828
  13.6800          0.4854          0.4854          0.4854
  13.7000          0.4878          0.4878          0.4878
  13.7200          0.4900          0.4900          0.4900
  13.7400          0.4919          0.4919          0.4919
  13.7600          0.4934          0.4934          0.4934
  13.7800          0.4944          0.4944          0.4944
  13.8000          0.4948          0.4948          0.4948
  13.8200          0.4949          0.4949          0.4949
  13.8400          0.4944          0.4944          0.4944
  13.8600          0.4936          0.4936          0.4936
  13.8800          0.4926          0.4926          0.4926
  13.9000          0.4915          0.4915          0.4915
  13.9200          0.4903          0.4903          0.4903
  13.9400          0.4892          0.4892          0.4892
  13.9600          0.4883          0.4883          0.4883
  13.9800          0.4876          0.4876          0.4876
  14.0000          0.4872          0.4872          0.4872
  14.0200          0.4873          0.4873          0.4873
  14.0400          0.4879          0.4879          0.4879
  14.0600          0.4891          0.4891          0.4891
  14.0800          0.4910          0.4910          0.4910
  14.1000          0.4937          0.4937          0.4937
  14.1200          0.4969          0.4969          0.4969
  14.1400          0.5005          0.5005          0.5005
  14.1600          0.5044          0.5044          0.5044
  14.1800          0.5084          0.5084          0.5084
  14.2000          0.5124          0.5124          0.5124
  14.2200          0.5164          0.5164          0.5164
  14.2400          0.5203          0.5203          0.5203
  14.2600          0.5244          0.5244          0.5244
  14.2800          0.5287          0.5287          0.5287
  14.3000          0.5334          0.5334          0.5334
  14.3200          0.5384          0.5384          0.5384
  14.3400          0.5436          0.5436          0.5436
  14.3600          0.5488          0.5488          0.5488
  14.3800          0.5535          0.5535          0.5535
  14.4000          0.5575          0.5575          0.5575
  14.4200          0.5605          0.5605          0.5605
  14.4400          0.5624          0.5624          0.5624
  14.4600          0.5631          0.5631          0.5631
  14.4800          0.5631          0.5631          0.5631
  14.5000          0.5626          0.5626          0.5626
  14.5200          0.5619          0.5619          0.5619
  14.5400          0.5613          0.5613          0.5613
  14.5600          0.5610          0.5610          0.5610
  14.5800          0.5609          0.5609          0.5609
  14.6000          0.5611          0.5611          0.5611
  14.6200          0.5615          0.5615          0.5615
  14.6400          0.5619          0.5619          0.5619
  14.6600          0.5621          0.5621          0.5621
  14.6800          0.5620          0.5620          0.5620
  14.7000          0.5615          0.5615          0.5615
  14.7200          0.5606          0.5606          0.5606
  14.7400          0.5591          0.5591          0.5591
  14.7600          0.5572          0.5572          0.5572
  14.7800          0.5547          0.5547          0.5547
  14.8000          0.5518          0.5518          0.5518
  14.8200          0.5486          0.5486          0.5486
  14.8400          0.5453          0.5453          0.5453
  14.8600          0.5422          0.5422          0.5422
  14.8800          0.5395          0.5395          0.5395
  14.9000          0.5376          0.5376          0.5376
  14.9200          0.5364          0.5364          0.5364
  14.9400          0.5363          0.5363          0.5363
  14.9600          0.5371          0.5371          0.5371
  14.9800          0.5389          0.5389          0.5389
  15.0000          0.5414          0.5414          0.5414
  15.0200          0.5446          0.5446          0.5446
  15.0400          0.5482          0.5482          0.5482
  15.0600          0.5522          0.5522          0.5522
  15.0800          0.5564          0.5564          0.5564
  15.1000          0.5610          0.5610          0.5610
  15.1200          0.5660          0.5660          0.5660
  15.1400          0.5713          0.5713          0.5713
  15.1600          0.5772          0.5772          0.5772
  15.1800          0.5834          0.5834          0.5834
  15.2000          0.5901          0.5901          0.5901
  15.2200          0.5970          0.5970          0.5970
  15.2400          0.6041          0.6041          0.6041
  15.2600          0.6110          0.6110          0.6110
  15.2800          0.6177          0.6177          0.6177
  15.3000          0.6240          0.6240          0.6240
  15.3200          0.6297          0.6297          0.6297
  15.3400          0.6347          0.6347          0.6347
  15.3600          0.6391          0.6391          0.6391
  15.3800          0.6428          0.6428          0.6428
  15.4000          0.6460          0.6460          0.6460
  15.4200          0.6488          0.6488          0.6488
  15.4400          0.6514          0.6514          0.6514
  15.4600          0.6539          0.6539          0.6539
  15.4800          0.6563          0.6563          0.6563
  15.5000          0.6586          0.6586          0.6586
  15.5200          0.6608          0.6608          0.6608
  15.5400          0.6626          0.6626          0.6626
  15.5600          0.6640          0.6640          0.6640
  15.5800          0.6649          0.6649          0.6649
  15.6000          0.6651          0.6651          0.6651
  15.6200          0.6646          0.6646          0.6646
  15.6400          0.6635          0.6635          0.6635
  15.6600          0.6620          0.6620          0.6620
  15.6800          0.6601          0.6601          0.6601
  15.7000          0.6579          0.6579          0.6579
  15.7200          0.6555          0.6555          0.6555
  15.7400          0.6528          0.6528          0.6528
  15.7600          0.6496          0.6496          0.6496
  15.7800          0.6456          0.6456          0.6456
  15.8000          0.6408          0.6408          0.6408
  15.8200          0.6350          0.6350          0.6350
  15.8400          0.6282          0.6282          0.6282
  15.8600          0.6209          0.6209          0.6209
  15.8800          0.6132          0.6132          0.6132
  15.9000          0.6058          0.6058          0.6058
  15.9200          0.5991          0.5991          0.5991
  15.9400          0.5934          0.5934          0.5934
  15.9600          0.5890          0.5890          0.5890
  15.9800          0.5862          0.5862          0.5862
  16.0000          0.5852          0.5852          0.5852
  16.0200          0.5860          0.5860          0.5860
  16.0400          0.5887          0.5887          0.5887
  16.0600          0.5934          0.5934          0.5934
  16.0800          0.6000          0.6000          0.6000
  16.1000          0.6083          0.6083          0.6083
  16.1200          0.6184          0.6184          0.6184
  16.1400          0.6299          0.6299          0.6299
  16.1600          0.6426          0.6426          0.6426
  16.1800          0.6560          0.6560          0.6560
  16.2000          0.6697          0.6697          0.6697
  16.2200          0.6832          0.6832          0.6832
  16.2400          0.6958          0.6958          0.6958
  16.2600          0.7069          0.7069          0.7069
  16.2800          0.7162          0.7162          0.7162
  16.3000          0.7232          0.7232          0.7232
  16.3200          0.7277          0.7277          0.7277
  16.3400          0.7297          0.7297          0.7297
  16.3600          0.7295          0.7295          0.7295
  16.3800          0.7273          0.7273          0.7273
  16.4000          0.7236          0.7236          0.7236
  16.4200          0.7189          0.7189          0.7189
  16.4400          0.7136          0.7136          0.7136
  16.4600          0.7080          0.7080          0.7080
  16.4800          0.7024          0.7024          0.7024
  16.5000          0.6970          0.6970          0.6970
  16.5200          0.6921          0.6921          0.6921
  16.5400          0.6876          0.6876          0.6876
  16.5600          0.6837          0.6837          0.6837
  16.5800          0.6802          0.6802          0.6802
  16.6000          0.6773          0.6773          0.6773
  16.6200          0.6749          0.6749          0.6749
  16.6400          0.6732          0.6732          0.6732
  16.6600          0.6722          0.6722          0.6722
  16.6800          0.6720          0.6720          0.6720
  16.7000          0.6728          0.6728          0.6728
  16.7200          0.6746          0.6746          0.6746
  16.7400          0.6774          0.6774          0.6774
  16.7600          0.6810          0.6810          0.6810
  16.7800          0.6853          0.6853          0.6853
  16.8000          0.6898          0.6898          0.6898
  16.8200          0.6943          0.6943          0.6943
  16.8400          0.6982          0.6982          0.6982
  16.8600          0.7011          0.7011          0.7011
  16.8800          0.7028          0.7028          0.7028
  16.9000          0.7031          0.7031          0.7031
  16.9200          0.7021          0.7021          0.7021
  16.9400          0.7000          0.7000          0.7000
  16.9600          0.6972          0.6972          0.6972
  16.9800          0.6941          0.6941          0.6941
  17.0000          0.6912          0.6912          0.6912
  17.0200          0.6886          0.6886          0.6886
  17.0400          0.6868          0.6868          0.6868
  17.0600          0.6857          0.6857          0.6857
  17.0800          0.6853          0.6853          0.6853
  17.1000          0.6856          0.6856          0.6856
  17.1200          0.6862          0.6862          0.6862
  17.1400          0.6871          0.6871          0.6871
  17.1600          0.6881          0.6881          0.6881
  17.1800          0.6891          0.6891          0.6891
  17.2000          0.6901          0.6901          0.6901
  17.2200          0.6915          0.6915          0.6915
  17.2400          0.6934          0.6934          0.6934
  17.2600          0.6960          0.6960          0.6960
  17.2800          0.6999          0.6999          0.6999
  17.3000          0.7051          0.7051          0.7051
  17.3200          0.7119          0.7119          0.7119
  17.3400          0.7204          0.7204          0.7204
  17.3600          0.7305          0.7305          0.7305
  17.3800          0.7420          0.7420          0.7420
  17.4000          0.7544          0.7544          0.7544
  17.4200          0.7673          0.7673          0.7673
  17.4400          0.7798          0.7798          0.7798
  17.4600          0.7913          0.7913          0.7913
  17.4800          0.8012          0.8012          0.8012
  17.5000          0.8089          0.8089          0.8089
  17.5200          0.8143          0.8143          0.8143
  17.5400          0.8175          0.8175          0.8175
  17.5600          0.8189          0.8189          0.8189
  17.5800          0.8189          0.8189          0.8189
  17.6000          0.8179          0.8179          0.8179
  17.6200          0.8164          0.8164          0.8164
  17.6400          0.8145          0.8145          0.8145
  17.6600          0.8123          0.8123          0.8123
  17.6800          0.8097          0.8097          0.8097
  17.7000          0.8066          0.8066          0.8066
  17.7200          0.8028          0.8028          0.8028
  17.7400          0.7983          0.7983          0.7983
  17.7600          0.7932          0.7932          0.7932
  17.7800          0.7875          0.7875          0.7875
  17.8000          0.7814          0.7814          0.7814
  17.8200          0.7754          0.7754          0.7754
  17.8400          0.7695          0.7695          0.7695
  17.8600          0.7642          0.7642          0.7642
  17.8800          0.7597          0.7597          0.7597
  17.9000          0.7563          0.7563          0.7563
  17.9200          0.7541          0.7541          0.7541
  17.9400          0.7534          0.7534          0.7534
  17.9600          0.7545          0.7545          0.7545
  17.9800          0.7575          0.7575          0.7575
  18.0000          0.7626          0.7626          0.7626
  18.0200          0.7699          0.7699          0.7699
  18.0400          0.7791          0.7791          0.7791
  18.0600          0.7902          0.7902          0.7902
  18.0800          0.8025          0.8025          0.8025
  18.1000          0.8154          0.8154          0.8154
  18.1200          0.8282          0.8282          0.8282
  18.1400          0.8400          0.8400          0.8400
  18.1600          0.8501          0.8501          0.8501
  18.1800          0.8580          0.8580          0.8580
  18.2000          0.8637          0.8637          0.8637
  18.2200          0.8672          0.8672          0.8672
  18.2400          0.8691          0.8691          0.8691
  18.2600          0.8700          0.8700          0.8700
  18.2800          0.8703          0.8703          0.8703
  18.3000          0.8704          0.8704          0.8704
  18.3200          0.8706          0.8706          0.8706
  18.3400          0.8710          0.8710          0.8710
  18.3600          0.8716          0.8716          0.8716
  18.3800          0.8721          0.8721          0.8721
  18.4000          0.8726          0.8726          0.8726
  18.4200          0.8727          0.8727          0.8727
  18.4400          0.8723          0.8723          0.8723
  18.4600          0.8713          0.8713          0.8713
  18.4800          0.8695          0.8695          0.8695
  18.5000          0.8669          0.8669          0.8669
  18.5200          0.8636          0.8636          0.8636
  18.5400          0.8597          0.8597          0.8597
  18.5600          0.8554          0.8554          0.8554
  18.5800          0.8508          0.8508          0.8508
  18.6000          0.8461          0.8461          0.8461
  18.6200          0.8414          0.8414          0.8414
  18.6400          0.8366          0.8366          0.8366
  18.6600          0.8318          0.8318          0.8318
  18.6800          0.8271          0.8271          0.8271
  18.7000          0.8225          0.8225          0.8225
  18.7200          0.8179          0.8179          0.8179
  18.7400          0.8135          0.8135          0.8135
  18.7600          0.8093          0.8093          0.8093
  18.7800          0.8054          0.8054          0.8054
  18.8000          0.8017          0.8017          0.8017
  18.8200          0.7982          0.7982          0.7982
  18.8400          0.7948          0.7948          0.7948
  18.8600          0.7910          0.7910          0.7910
  18.8800          0.7867          0.7867          0.7867
  18.9000          0.7816          0.7816          0.7816
  18.9200          0.7752          0.7752          0.7752
  18.9400          0.7674          0.7674          0.7674
  18.9600          0.7583          0.7583          0.7583
  18.9800          0.7480          0.7480          0.7480
  19.0000          0.7368          0.7368          0.7368
  19.0200          0.7251          0.7251          0.7251
  19.0400          0.7132          0.7132          0.7132
  19.0600          0.7012          0.7012          0.7012
  19.0800          0.6894          0.6894          0.6894
  19.1000          0.6778          0.6778          0.6778
  19.1200          0.6662          0.6662          0.6662
  19.1400          0.6548          0.6548          0.6548
  19.1600          0.6434          0.6434          0.6434
  19.1800          0.6322          0.6322          0.6322
  19.2000          0.6212          0.6212          0.6212
  19.2200          0.6104          0.6104          0.6104
  19.2400          0.5999          0.5999          0.5999
  19.2600          0.5896          0.5896          0.5896
  19.2800          0.5794          0.5794          0.5794
  19.3000          0.5692          0.5692          0.5692
  19.3200          0.5589          0.5589          0.5589
  19.3400          0.5484          0.5484          0.5484
  19.3600          0.5377          0.5377          0.5377
  19.3800          0.5269          0.5269          0.5269
  19.4000          0.5162          0.5162          0.5162
  19.4200          0.5057          0.5057          0.5057
  19.4400          0.4954          0.4954          0.4954
  19.4600          0.4855          0.4855          0.4855
  19.4800          0.4760          0.4760          0.4760
  19.5000          0.4668          0.4668          0.4668
  19.5200          0.4578          0.4578          0.4578
  19.5400          0.4491          0.4491          0.4491
  19.5600          0.4404          0.4404          0.4404
  19.5800          0.4318          0.4318          0.4318
  19.6000          0.4233          0.4233          0.4233
  19.6200          0.4148          0.4148          0.4148
  19.6400          0.4065          0.4065          0.4065
  19.6600          0.3983          0.3983          0.3983
  19.6800          0.3902          0.3902          0.3902
  19.7000          0.3823          0.3823          0.3823
  19.7200          0.3746          0.3746          0.3746
  19.7400          0.3669          0.3669          0.3669
  19.7600          0.3591          0.3591          0.3591
  19.7800          0.3511          0.3511          0.3511
  19.8000          0.3428          0.3428          0.3428
  19.8200          0.3341          0.3341          0.3341
  19.8400          0.3248          0.3248          0.3248
  19.8600          0.3148          0.3148          0.3148
  19.8800          0.3040          0.3040          0.3040
  19.9000          0.2923          0.2923          0.2923
  19.9200          0.2796          0.2796          0.2796
  19.9400          0.2658          0.2658          0.2658
  19.9600          0.2509          0.2509          0.2509
  19.9800          0.2351          0.2351          0.2351
  20.0000          0.2188          0.2188          0.2188
