# E(eV)    DOS      Integrated DOS
-13.881936 0.000000 0.000000
-13.595936 0.000000 0.000000
-13.308936 0.000000 0.000000
-13.022936 0.000000 0.000000
-12.736936 0.000000 0.000000
-12.449936 0.000000 0.000000
-12.163936 0.000000 0.000000
-11.876936 0.000000 0.000000
-11.590936 0.000000 0.000000
-11.304936 0.000000 0.000000
-11.017936 0.000000 0.000000
-10.731936 0.000000 0.000000
-10.444936 0.000000 0.000000
-10.158936 0.000010 0.000003
-9.871936 0.009212 0.002641
-9.585936 0.040900 0.014360
-9.299936 0.062410 0.032230
-9.012936 0.081130 0.055470
-8.726936 0.098230 0.083600
-8.439936 0.116600 0.117000
-8.153936 0.143100 0.158000
-7.867936 0.177700 0.208900
-7.580936 0.234400 0.276000
-7.294936 0.472000 0.411200
-7.007936 0.776000 0.633500
-6.721936 1.302000 1.006000
-6.435936 1.791000 1.519000
-6.148936 1.675000 1.999000
-5.862936 1.464000 2.418000
-5.575936 1.336000 2.801000
-5.289936 1.811000 3.319000
-5.002936 1.951000 3.878000
-4.716936 2.135000 4.489000
-4.430936 2.860000 5.308000
-4.143936 2.350000 5.981000
-3.857936 1.646000 6.453000
-3.570936 1.698000 6.939000
-3.284936 2.044000 7.524000
-2.998936 1.872000 8.061000
-2.711936 1.617000 8.524000
-2.425936 1.627000 8.990000
-2.138936 2.098000 9.590000
-1.852936 2.462000 10.300000
-1.566936 0.932900 10.560000
-1.279936 0.281100 10.640000
-0.993936 0.267800 10.720000
-0.706936 0.289000 10.800000
-0.420936 0.277700 10.880000
-0.133936 0.302100 10.970000
0.152064 0.283300 11.050000
0.438064 0.264000 11.130000
0.725064 0.285300 11.210000
1.011064 0.273200 11.290000
1.298064 0.280400 11.370000
1.584064 0.265000 11.440000
1.870064 0.279600 11.520000
2.157064 0.235500 11.590000
2.443064 0.241000 11.660000
2.730064 0.244400 11.730000
3.016064 0.283500 11.810000
3.302064 0.443400 11.940000
3.589064 0.333300 12.030000
3.875064 0.287300 12.110000
4.162064 0.296000 12.200000
4.448064 0.247100 12.270000
4.734064 0.306700 12.360000
5.021064 0.307600 12.450000
5.307064 0.364600 12.550000
5.594064 0.346100 12.650000
5.880064 0.370600 12.760000
6.167064 0.323700 12.850000
6.453064 0.281600 12.930000
6.739064 0.274600 13.010000
7.026064 0.290600 13.090000
7.312064 0.306000 13.180000
7.599064 0.352700 13.280000
7.885064 0.327200 13.370000
8.171064 0.356500 13.480000
8.458064 0.380500 13.580000
8.744064 0.282500 13.660000
9.031064 0.421900 13.790000
9.317064 0.327400 13.880000
9.603064 0.377600 13.990000
9.890064 0.398600 14.100000
10.176064 0.504600 14.250000
10.463064 0.456600 14.380000
10.749064 0.507700 14.520000
11.036064 0.509700 14.670000
11.322064 0.479400 14.810000
11.608064 0.488100 14.950000
11.895064 0.480600 15.080000
12.181064 0.516900 15.230000
12.468064 0.451300 15.360000
12.754064 0.496300 15.500000
13.040064 0.501000 15.650000
13.327064 0.452000 15.780000
13.613064 0.456000 15.910000
13.900064 0.523100 16.060000
14.186064 0.431900 16.180000
14.472064 0.520600 16.330000
14.759064 0.587200 16.500000
15.045064 0.618400 16.670000
15.332064 0.523500 16.820000
15.618064 0.493800 16.970000
15.905064 0.522700 17.120000
16.191064 0.595500 17.290000
16.477064 0.528700 17.440000
16.764064 0.469800 17.570000
17.050064 0.533600 17.720000
17.337064 0.672500 17.920000
17.623064 0.789700 18.140000
17.909064 0.865900 18.390000
18.196064 0.788200 18.620000
18.482064 0.752200 18.830000
18.769064 0.747300 19.050000
19.055064 0.579200 19.210000
19.341064 0.616900 19.390000
19.628064 0.591500 19.560000
19.914064 0.553800 19.720000
20.201064 0.547500 19.870000
20.487064 0.512800 20.020000
20.773064 0.405300 20.140000
21.060064 0.322600 20.230000
21.346064 0.412400 20.350000
21.633064 0.249200 20.420000
21.919064 0.463800 20.550000
22.206064 0.467300 20.690000
22.492064 0.375900 20.790000
22.778064 0.474400 20.930000
23.065064 0.346400 21.030000
23.351064 0.337900 21.130000
23.638064 0.530900 21.280000
23.924064 0.521200 21.430000
24.210064 0.582200 21.590000
24.497064 0.657700 21.780000
24.783064 0.840400 22.020000
25.070064 0.733900 22.230000
25.356064 0.741800 22.450000
25.642064 0.800300 22.670000
25.929064 0.821600 22.910000
26.215064 0.934100 23.180000
26.502064 1.109000 23.490000
26.788064 0.860800 23.740000
27.075064 0.972800 24.020000
27.361064 0.880700 24.270000
27.647064 0.756500 24.490000
27.934064 0.846900 24.730000
28.220064 0.766900 24.950000
28.507064 0.964600 25.230000
28.793064 0.920100 25.490000
29.079064 0.894400 25.750000
29.366064 0.815300 25.980000
29.652064 0.799500 26.210000
29.939064 0.631500 26.390000
30.225064 0.576900 26.560000
30.511064 0.701300 26.760000
30.798064 0.678500 26.950000
31.084064 0.622000 27.130000
31.371064 0.702100 27.330000
31.657064 0.708100 27.530000
31.944064 0.659800 27.720000
32.230064 0.783500 27.950000
32.516064 0.770800 28.170000
32.803064 0.737900 28.380000
33.089064 0.804600 28.610000
33.376064 0.906200 28.870000
33.662064 0.753000 29.080000
33.948064 0.946300 29.360000
34.235064 1.113000 29.670000
34.521064 1.038000 29.970000
34.808064 0.996600 30.260000
35.094064 1.147000 30.590000
35.380064 1.109000 30.900000
35.667064 0.996700 31.190000
35.953064 0.946600 31.460000
36.240064 0.979800 31.740000
36.526064 0.722600 31.950000
36.812064 0.759800 32.160000
37.099064 0.928000 32.430000
37.385064 1.047000 32.730000
37.672064 0.914900 32.990000
37.958064 0.999200 33.280000
38.245064 0.788500 33.500000
38.531064 1.020000 33.800000
38.817064 0.966600 34.070000
39.104064 0.943900 34.340000
39.390064 1.078000 34.650000
39.677064 1.140000 34.980000
39.963064 1.370000 35.370000
40.249064 1.491000 35.800000
40.536064 1.734000 36.290000
40.822064 2.106000 36.900000
41.109064 2.134000 37.510000
41.395064 1.850000 38.040000
41.681064 1.642000 38.510000
41.968064 1.970000 39.070000
42.254064 2.104000 39.680000
42.541064 1.352000 40.060000
42.827064 1.206000 40.410000
43.114064 1.181000 40.750000
43.400064 1.481000 41.170000
43.686064 1.516000 41.610000
43.973064 1.561000 42.050000
44.259064 1.933000 42.610000
44.546064 1.469000 43.030000
44.832064 1.190000 43.370000
45.118064 1.428000 43.780000
45.405064 1.215000 44.120000
45.691064 0.780000 44.350000
45.978064 0.757300 44.560000
46.264064 0.938500 44.830000
46.550064 1.037000 45.130000
46.837064 0.962300 45.410000
47.123064 1.141000 45.730000
47.410064 1.080000 46.040000
47.696064 1.186000 46.380000
47.983064 1.093000 46.700000
48.269064 0.888900 46.950000
48.555064 0.835800 47.190000
48.842064 0.849700 47.430000
49.128064 0.899500 47.690000
49.415064 0.838200 47.930000
49.701064 1.152000 48.260000
49.987064 1.139000 48.590000
50.274064 1.253000 48.950000
50.560064 1.092000 49.260000
50.847064 0.859000 49.500000
51.133064 0.768500 49.720000
51.419064 1.029000 50.020000
51.706064 0.862900 50.270000
51.992064 0.913300 50.530000
52.279064 0.947800 50.800000
52.565064 1.031000 51.090000
52.851064 1.137000 51.420000
53.138064 0.982000 51.700000
53.424064 1.027000 52.000000
53.711064 1.094000 52.310000
53.997064 1.018000 52.600000
54.284064 0.912500 52.860000
54.570064 1.080000 53.170000
54.856064 1.056000 53.470000
55.143064 1.110000 53.790000
55.429064 1.027000 54.090000
55.716064 0.983100 54.370000
56.002064 1.097000 54.680000
56.288064 1.157000 55.010000
56.575064 1.161000 55.350000
56.861064 1.344000 55.730000
57.148064 1.084000 56.040000
57.434064 1.047000 56.340000
57.720064 1.111000 56.660000
58.007064 1.021000 56.950000
58.293064 0.994900 57.240000
58.580064 1.095000 57.550000
58.866064 1.183000 57.890000
59.153064 1.239000 58.240000
59.439064 0.940300 58.510000
59.725064 0.650900 58.700000
60.012064 0.654700 58.890000
60.298064 0.801400 59.120000
60.585064 0.690000 59.310000
60.871064 0.668900 59.510000
61.157064 0.440700 59.630000
61.444064 0.195600 59.690000
61.730064 0.198400 59.740000
62.017064 0.119100 59.780000
62.303064 0.086440 59.800000
62.589064 0.107900 59.830000
62.876064 0.146300 59.880000
63.162064 0.071240 59.900000
63.449064 0.118800 59.930000
63.735064 0.088540 59.960000
64.022064 0.052140 59.970000
64.308064 0.027500 59.980000
64.594064 0.037870 59.990000
64.881064 0.002485 59.990000
65.167064 0.000371 59.990000
65.454064 0.008340 59.990000
65.740064 0.008744 59.990000
66.026064 0.000003 60.000000
66.313064 0.001800 60.000000
66.599064 0.008552 60.000000
66.886064 0.000122 60.000000
67.172064 0.000074 60.000000
67.458064 0.004997 60.000000
67.745064 0.000167 60.000000
68.031064 0.000123 60.000000
68.318064 0.001614 60.000000
68.604064 0.000009 60.000000
68.890064 0.000000 60.000000
69.177064 0.000000 60.000000
69.463064 0.000000 60.000000
69.750064 0.000000 60.000000
70.036064 0.000000 60.000000
70.323064 0.000000 60.000000
70.609064 0.000000 60.000000
70.895064 0.000000 60.000000
71.182064 0.000000 60.000000
71.468064 0.000000 60.000000
71.755064 0.000000 60.000000
72.041064 0.000000 60.000000
